#  E (eV)   dos(E)     Int dos(E) EFermi =    6.598 eV
  -9.000  0.0000E+00  0.0000E+00
  -8.990  0.0000E+00  0.0000E+00
  -8.980  0.0000E+00  0.0000E+00
  -8.970  0.0000E+00  0.0000E+00
  -8.960  0.0000E+00  0.0000E+00
  -8.950  0.0000E+00  0.0000E+00
  -8.940  0.0000E+00  0.0000E+00
  -8.930  0.0000E+00  0.0000E+00
  -8.920  0.0000E+00  0.0000E+00
  -8.910  0.0000E+00  0.0000E+00
  -8.900  0.0000E+00  0.0000E+00
  -8.890  0.0000E+00  0.0000E+00
  -8.880  0.0000E+00  0.0000E+00
  -8.870  0.0000E+00  0.0000E+00
  -8.860  0.0000E+00  0.0000E+00
  -8.850  0.0000E+00  0.0000E+00
  -8.840  0.0000E+00  0.0000E+00
  -8.830  0.0000E+00  0.0000E+00
  -8.820  0.0000E+00  0.0000E+00
  -8.810  0.0000E+00  0.0000E+00
  -8.800  0.0000E+00  0.0000E+00
  -8.790  0.0000E+00  0.0000E+00
  -8.780  0.0000E+00  0.0000E+00
  -8.770  0.0000E+00  0.0000E+00
  -8.760  0.0000E+00  0.0000E+00
  -8.750  0.0000E+00  0.0000E+00
  -8.740  0.0000E+00  0.0000E+00
  -8.730  0.0000E+00  0.0000E+00
  -8.720  0.0000E+00  0.0000E+00
  -8.710  0.0000E+00  0.0000E+00
  -8.700  0.0000E+00  0.0000E+00
  -8.690  0.0000E+00  0.0000E+00
  -8.680  0.0000E+00  0.0000E+00
  -8.670  0.0000E+00  0.0000E+00
  -8.660  0.0000E+00  0.0000E+00
  -8.650  0.0000E+00  0.0000E+00
  -8.640  0.0000E+00  0.0000E+00
  -8.630  0.0000E+00  0.0000E+00
  -8.620  0.0000E+00  0.0000E+00
  -8.610  0.0000E+00  0.0000E+00
  -8.600  0.0000E+00  0.0000E+00
  -8.590  0.0000E+00  0.0000E+00
  -8.580  0.0000E+00  0.0000E+00
  -8.570  0.0000E+00  0.0000E+00
  -8.560  0.0000E+00  0.0000E+00
  -8.550  0.0000E+00  0.0000E+00
  -8.540  0.0000E+00  0.0000E+00
  -8.530  0.0000E+00  0.0000E+00
  -8.520  0.0000E+00  0.0000E+00
  -8.510  0.0000E+00  0.0000E+00
  -8.500  0.0000E+00  0.0000E+00
  -8.490  0.0000E+00  0.0000E+00
  -8.480  0.0000E+00  0.0000E+00
  -8.470  0.0000E+00  0.0000E+00
  -8.460  0.0000E+00  0.0000E+00
  -8.450  0.0000E+00  0.0000E+00
  -8.440  0.0000E+00  0.0000E+00
  -8.430  0.0000E+00  0.0000E+00
  -8.420  0.0000E+00  0.0000E+00
  -8.410  0.0000E+00  0.0000E+00
  -8.400  0.0000E+00  0.0000E+00
  -8.390  0.0000E+00  0.0000E+00
  -8.380  0.0000E+00  0.0000E+00
  -8.370  0.0000E+00  0.0000E+00
  -8.360  0.0000E+00  0.0000E+00
  -8.350  0.0000E+00  0.0000E+00
  -8.340  0.0000E+00  0.0000E+00
  -8.330  0.0000E+00  0.0000E+00
  -8.320  0.0000E+00  0.0000E+00
  -8.310  0.0000E+00  0.0000E+00
  -8.300  0.0000E+00  0.0000E+00
  -8.290  0.0000E+00  0.0000E+00
  -8.280  0.0000E+00  0.0000E+00
  -8.270  0.0000E+00  0.0000E+00
  -8.260  0.0000E+00  0.0000E+00
  -8.250  0.0000E+00  0.0000E+00
  -8.240  0.0000E+00  0.0000E+00
  -8.230  0.0000E+00  0.0000E+00
  -8.220  0.0000E+00  0.0000E+00
  -8.210  0.0000E+00  0.0000E+00
  -8.200  0.0000E+00  0.0000E+00
  -8.190  0.0000E+00  0.0000E+00
  -8.180  0.0000E+00  0.0000E+00
  -8.170  0.0000E+00  0.0000E+00
  -8.160  0.0000E+00  0.0000E+00
  -8.150  0.0000E+00  0.0000E+00
  -8.140  0.0000E+00  0.0000E+00
  -8.130  0.0000E+00  0.0000E+00
  -8.120  0.0000E+00  0.0000E+00
  -8.110  0.0000E+00  0.0000E+00
  -8.100  0.0000E+00  0.0000E+00
  -8.090  0.0000E+00  0.0000E+00
  -8.080  0.0000E+00  0.0000E+00
  -8.070  0.0000E+00  0.0000E+00
  -8.060  0.0000E+00  0.0000E+00
  -8.050  0.0000E+00  0.0000E+00
  -8.040  0.0000E+00  0.0000E+00
  -8.030  0.0000E+00  0.0000E+00
  -8.020  0.0000E+00  0.0000E+00
  -8.010  0.0000E+00  0.0000E+00
  -8.000  0.0000E+00  0.0000E+00
  -7.990  0.0000E+00  0.0000E+00
  -7.980  0.0000E+00  0.0000E+00
  -7.970  0.0000E+00  0.0000E+00
  -7.960  0.0000E+00  0.0000E+00
  -7.950  0.0000E+00  0.0000E+00
  -7.940  0.0000E+00  0.0000E+00
  -7.930  0.0000E+00  0.0000E+00
  -7.920  0.0000E+00  0.0000E+00
  -7.910  0.0000E+00  0.0000E+00
  -7.900  0.0000E+00  0.0000E+00
  -7.890  0.0000E+00  0.0000E+00
  -7.880  0.0000E+00  0.0000E+00
  -7.870  0.0000E+00  0.0000E+00
  -7.860  0.0000E+00  0.0000E+00
  -7.850  0.0000E+00  0.0000E+00
  -7.840  0.0000E+00  0.0000E+00
  -7.830  0.0000E+00  0.0000E+00
  -7.820  0.0000E+00  0.0000E+00
  -7.810  0.0000E+00  0.0000E+00
  -7.800  0.0000E+00  0.0000E+00
  -7.790  0.0000E+00  0.0000E+00
  -7.780  0.0000E+00  0.0000E+00
  -7.770  0.0000E+00  0.0000E+00
  -7.760  0.0000E+00  0.0000E+00
  -7.750  0.0000E+00  0.0000E+00
  -7.740  0.0000E+00  0.0000E+00
  -7.730  0.0000E+00  0.0000E+00
  -7.720  0.0000E+00  0.0000E+00
  -7.710  0.0000E+00  0.0000E+00
  -7.700  0.0000E+00  0.0000E+00
  -7.690  0.0000E+00  0.0000E+00
  -7.680  0.0000E+00  0.0000E+00
  -7.670  0.0000E+00  0.0000E+00
  -7.660  0.0000E+00  0.0000E+00
  -7.650  0.0000E+00  0.0000E+00
  -7.640  0.0000E+00  0.0000E+00
  -7.630  0.0000E+00  0.0000E+00
  -7.620  0.0000E+00  0.0000E+00
  -7.610  0.0000E+00  0.0000E+00
  -7.600  0.0000E+00  0.0000E+00
  -7.590  0.0000E+00  0.0000E+00
  -7.580  0.0000E+00  0.0000E+00
  -7.570  0.0000E+00  0.0000E+00
  -7.560  0.0000E+00  0.0000E+00
  -7.550  0.0000E+00  0.0000E+00
  -7.540  0.0000E+00  0.0000E+00
  -7.530  0.0000E+00  0.0000E+00
  -7.520  0.0000E+00  0.0000E+00
  -7.510  0.0000E+00  0.0000E+00
  -7.500  0.0000E+00  0.0000E+00
  -7.490  0.0000E+00  0.0000E+00
  -7.480  0.0000E+00  0.0000E+00
  -7.470  0.0000E+00  0.0000E+00
  -7.460  0.0000E+00  0.0000E+00
  -7.450  0.0000E+00  0.0000E+00
  -7.440  0.0000E+00  0.0000E+00
  -7.430  0.0000E+00  0.0000E+00
  -7.420  0.0000E+00  0.0000E+00
  -7.410  0.0000E+00  0.0000E+00
  -7.400  0.0000E+00  0.0000E+00
  -7.390  0.0000E+00  0.0000E+00
  -7.380  0.0000E+00  0.0000E+00
  -7.370  0.0000E+00  0.0000E+00
  -7.360  0.0000E+00  0.0000E+00
  -7.350  0.0000E+00  0.0000E+00
  -7.340  0.0000E+00  0.0000E+00
  -7.330  0.0000E+00  0.0000E+00
  -7.320  0.0000E+00  0.0000E+00
  -7.310  0.0000E+00  0.0000E+00
  -7.300  0.0000E+00  0.0000E+00
  -7.290  0.0000E+00  0.0000E+00
  -7.280  0.0000E+00  0.0000E+00
  -7.270  0.0000E+00  0.0000E+00
  -7.260  0.0000E+00  0.0000E+00
  -7.250  0.0000E+00  0.0000E+00
  -7.240  0.0000E+00  0.0000E+00
  -7.230  0.0000E+00  0.0000E+00
  -7.220  0.0000E+00  0.0000E+00
  -7.210  0.0000E+00  0.0000E+00
  -7.200  0.0000E+00  0.0000E+00
  -7.190  0.0000E+00  0.0000E+00
  -7.180  0.0000E+00  0.0000E+00
  -7.170  0.0000E+00  0.0000E+00
  -7.160  0.0000E+00  0.0000E+00
  -7.150  0.0000E+00  0.0000E+00
  -7.140  0.0000E+00  0.0000E+00
  -7.130  0.0000E+00  0.0000E+00
  -7.120  0.0000E+00  0.0000E+00
  -7.110  0.0000E+00  0.0000E+00
  -7.100  0.0000E+00  0.0000E+00
  -7.090  0.0000E+00  0.0000E+00
  -7.080  0.0000E+00  0.0000E+00
  -7.070  0.0000E+00  0.0000E+00
  -7.060  0.0000E+00  0.0000E+00
  -7.050  0.0000E+00  0.0000E+00
  -7.040  0.0000E+00  0.0000E+00
  -7.030  0.0000E+00  0.0000E+00
  -7.020  0.0000E+00  0.0000E+00
  -7.010  0.0000E+00  0.0000E+00
  -7.000  0.0000E+00  0.0000E+00
  -6.990  0.0000E+00  0.0000E+00
  -6.980  0.0000E+00  0.0000E+00
  -6.970  0.0000E+00  0.0000E+00
  -6.960  0.0000E+00  0.0000E+00
  -6.950  0.0000E+00  0.0000E+00
  -6.940  0.0000E+00  0.0000E+00
  -6.930  0.0000E+00  0.0000E+00
  -6.920  0.0000E+00  0.0000E+00
  -6.910  0.0000E+00  0.0000E+00
  -6.900  0.0000E+00  0.0000E+00
  -6.890  0.0000E+00  0.0000E+00
  -6.880  0.0000E+00  0.0000E+00
  -6.870  0.0000E+00  0.0000E+00
  -6.860  0.0000E+00  0.0000E+00
  -6.850  0.0000E+00  0.0000E+00
  -6.840  0.0000E+00  0.0000E+00
  -6.830  0.0000E+00  0.0000E+00
  -6.820  0.0000E+00  0.0000E+00
  -6.810  0.0000E+00  0.0000E+00
  -6.800  0.0000E+00  0.0000E+00
  -6.790  0.0000E+00  0.0000E+00
  -6.780  0.0000E+00  0.0000E+00
  -6.770  0.0000E+00  0.0000E+00
  -6.760  0.0000E+00  0.0000E+00
  -6.750  0.0000E+00  0.0000E+00
  -6.740  0.0000E+00  0.0000E+00
  -6.730  0.0000E+00  0.0000E+00
  -6.720  0.0000E+00  0.0000E+00
  -6.710  0.0000E+00  0.0000E+00
  -6.700  0.0000E+00  0.0000E+00
  -6.690  0.0000E+00  0.0000E+00
  -6.680  0.0000E+00  0.0000E+00
  -6.670  0.0000E+00  0.0000E+00
  -6.660  0.0000E+00  0.0000E+00
  -6.650  0.0000E+00  0.0000E+00
  -6.640  0.0000E+00  0.0000E+00
  -6.630  0.0000E+00  0.0000E+00
  -6.620  0.0000E+00  0.0000E+00
  -6.610  0.0000E+00  0.0000E+00
  -6.600  0.0000E+00  0.0000E+00
  -6.590  0.0000E+00  0.0000E+00
  -6.580  0.0000E+00  0.0000E+00
  -6.570  0.0000E+00  0.0000E+00
  -6.560  0.0000E+00  0.0000E+00
  -6.550  0.0000E+00  0.0000E+00
  -6.540  0.0000E+00  0.0000E+00
  -6.530  0.0000E+00  0.0000E+00
  -6.520  0.0000E+00  0.0000E+00
  -6.510  0.0000E+00  0.0000E+00
  -6.500  0.0000E+00  0.0000E+00
  -6.490  0.0000E+00  0.0000E+00
  -6.480  0.0000E+00  0.0000E+00
  -6.470  0.0000E+00  0.0000E+00
  -6.460  0.0000E+00  0.0000E+00
  -6.450  0.0000E+00  0.0000E+00
  -6.440  0.0000E+00  0.0000E+00
  -6.430  0.0000E+00  0.0000E+00
  -6.420  0.0000E+00  0.0000E+00
  -6.410  0.0000E+00  0.0000E+00
  -6.400  0.0000E+00  0.0000E+00
  -6.390  0.0000E+00  0.0000E+00
  -6.380  0.0000E+00  0.0000E+00
  -6.370  0.0000E+00  0.0000E+00
  -6.360  0.0000E+00  0.0000E+00
  -6.350  0.0000E+00  0.0000E+00
  -6.340  0.0000E+00  0.0000E+00
  -6.330  0.0000E+00  0.0000E+00
  -6.320  0.0000E+00  0.0000E+00
  -6.310  0.0000E+00  0.0000E+00
  -6.300  0.0000E+00  0.0000E+00
  -6.290  0.0000E+00  0.0000E+00
  -6.280  0.0000E+00  0.0000E+00
  -6.270  0.0000E+00  0.0000E+00
  -6.260  0.0000E+00  0.0000E+00
  -6.250  0.0000E+00  0.0000E+00
  -6.240  0.0000E+00  0.0000E+00
  -6.230  0.0000E+00  0.0000E+00
  -6.220  0.0000E+00  0.0000E+00
  -6.210  0.0000E+00  0.0000E+00
  -6.200  0.0000E+00  0.0000E+00
  -6.190  0.0000E+00  0.0000E+00
  -6.180  0.0000E+00  0.0000E+00
  -6.170  0.0000E+00  0.0000E+00
  -6.160  0.0000E+00  0.0000E+00
  -6.150  0.0000E+00  0.0000E+00
  -6.140  0.0000E+00  0.0000E+00
  -6.130  0.0000E+00  0.0000E+00
  -6.120  0.0000E+00  0.0000E+00
  -6.110  0.0000E+00  0.0000E+00
  -6.100  0.0000E+00  0.0000E+00
  -6.090  0.0000E+00  0.0000E+00
  -6.080  0.0000E+00  0.0000E+00
  -6.070  0.0000E+00  0.0000E+00
  -6.060  0.0000E+00  0.0000E+00
  -6.050  0.0000E+00  0.0000E+00
  -6.040  0.0000E+00  0.0000E+00
  -6.030  0.0000E+00  0.0000E+00
  -6.020  0.0000E+00  0.0000E+00
  -6.010  0.0000E+00  0.0000E+00
  -6.000  0.0000E+00  0.0000E+00
  -5.990  0.0000E+00  0.0000E+00
  -5.980  0.0000E+00  0.0000E+00
  -5.970  0.0000E+00  0.0000E+00
  -5.960  0.0000E+00  0.0000E+00
  -5.950  0.0000E+00  0.0000E+00
  -5.940  0.0000E+00  0.0000E+00
  -5.930  0.0000E+00  0.0000E+00
  -5.920  0.0000E+00  0.0000E+00
  -5.910  0.0000E+00  0.0000E+00
  -5.900  0.0000E+00  0.0000E+00
  -5.890  0.0000E+00  0.0000E+00
  -5.880  0.6344E-04  0.7107E-07
  -5.870  0.1003E-02  0.4465E-05
  -5.860  0.3065E-02  0.2387E-04
  -5.850  0.6251E-02  0.6951E-04
  -5.840  0.1056E-01  0.1526E-03
  -5.830  0.1599E-01  0.2844E-03
  -5.820  0.2255E-01  0.4762E-03
  -5.810  0.3023E-01  0.7391E-03
  -5.800  0.3903E-01  0.1084E-02
  -5.790  0.5765E-01  0.1528E-02
  -5.780  0.1245E+00  0.2487E-02
  -5.770  0.1332E+00  0.3824E-02
  -5.760  0.8414E-01  0.4956E-02
  -5.750  0.8879E-01  0.5821E-02
  -5.740  0.9353E-01  0.6732E-02
  -5.730  0.9837E-01  0.7692E-02
  -5.720  0.1033E+00  0.8700E-02
  -5.710  0.1083E+00  0.9758E-02
  -5.700  0.1135E+00  0.1087E-01
  -5.690  0.1187E+00  0.1203E-01
  -5.680  0.1240E+00  0.1324E-01
  -5.670  0.1294E+00  0.1451E-01
  -5.660  0.1349E+00  0.1583E-01
  -5.650  0.1405E+00  0.1721E-01
  -5.640  0.1462E+00  0.1864E-01
  -5.630  0.1546E+00  0.2014E-01
  -5.620  0.1628E+00  0.2173E-01
  -5.610  0.1701E+00  0.2339E-01
  -5.600  0.1764E+00  0.2513E-01
  -5.590  0.1818E+00  0.2692E-01
  -5.580  0.1863E+00  0.2876E-01
  -5.570  0.1897E+00  0.3064E-01
  -5.560  0.1923E+00  0.3255E-01
  -5.550  0.1938E+00  0.3448E-01
  -5.540  0.1890E+00  0.3641E-01
  -5.530  0.1838E+00  0.3827E-01
  -5.520  0.1830E+00  0.4010E-01
  -5.510  0.1857E+00  0.4194E-01
  -5.500  0.1887E+00  0.4381E-01
  -5.490  0.1918E+00  0.4572E-01
  -5.480  0.1950E+00  0.4765E-01
  -5.470  0.1982E+00  0.4962E-01
  -5.460  0.2016E+00  0.5162E-01
  -5.450  0.2050E+00  0.5365E-01
  -5.440  0.2085E+00  0.5572E-01
  -5.430  0.2121E+00  0.5782E-01
  -5.420  0.2158E+00  0.5996E-01
  -5.410  0.2195E+00  0.6213E-01
  -5.400  0.2234E+00  0.6435E-01
  -5.390  0.2273E+00  0.6660E-01
  -5.380  0.2313E+00  0.6890E-01
  -5.370  0.2353E+00  0.7123E-01
  -5.360  0.2393E+00  0.7360E-01
  -5.350  0.2433E+00  0.7601E-01
  -5.340  0.2473E+00  0.7847E-01
  -5.330  0.2513E+00  0.8096E-01
  -5.320  0.2554E+00  0.8349E-01
  -5.310  0.2594E+00  0.8607E-01
  -5.300  0.2629E+00  0.8868E-01
  -5.290  0.2650E+00  0.9132E-01
  -5.280  0.2659E+00  0.9398E-01
  -5.270  0.2664E+00  0.9664E-01
  -5.260  0.2685E+00  0.9931E-01
  -5.250  0.2705E+00  0.1020E+00
  -5.240  0.2725E+00  0.1047E+00
  -5.230  0.2744E+00  0.1075E+00
  -5.220  0.2763E+00  0.1102E+00
  -5.210  0.2781E+00  0.1130E+00
  -5.200  0.2799E+00  0.1158E+00
  -5.190  0.2816E+00  0.1186E+00
  -5.180  0.2833E+00  0.1214E+00
  -5.170  0.2849E+00  0.1242E+00
  -5.160  0.2865E+00  0.1271E+00
  -5.150  0.2874E+00  0.1300E+00
  -5.140  0.2882E+00  0.1328E+00
  -5.130  0.2892E+00  0.1357E+00
  -5.120  0.2905E+00  0.1386E+00
  -5.110  0.2921E+00  0.1415E+00
  -5.100  0.2940E+00  0.1445E+00
  -5.090  0.2960E+00  0.1474E+00
  -5.080  0.2984E+00  0.1504E+00
  -5.070  0.3010E+00  0.1534E+00
  -5.060  0.3038E+00  0.1564E+00
  -5.050  0.3069E+00  0.1595E+00
  -5.040  0.3100E+00  0.1626E+00
  -5.030  0.3131E+00  0.1657E+00
  -5.020  0.3162E+00  0.1688E+00
  -5.010  0.3194E+00  0.1720E+00
  -5.000  0.3225E+00  0.1752E+00
  -4.990  0.3257E+00  0.1784E+00
  -4.980  0.3289E+00  0.1817E+00
  -4.970  0.3321E+00  0.1850E+00
  -4.960  0.3354E+00  0.1884E+00
  -4.950  0.3386E+00  0.1917E+00
  -4.940  0.3419E+00  0.1951E+00
  -4.930  0.3452E+00  0.1986E+00
  -4.920  0.3485E+00  0.2020E+00
  -4.910  0.3517E+00  0.2055E+00
  -4.900  0.3545E+00  0.2091E+00
  -4.890  0.3569E+00  0.2126E+00
  -4.880  0.3590E+00  0.2162E+00
  -4.870  0.3607E+00  0.2198E+00
  -4.860  0.3620E+00  0.2234E+00
  -4.850  0.3629E+00  0.2270E+00
  -4.840  0.3634E+00  0.2307E+00
  -4.830  0.3636E+00  0.2343E+00
  -4.820  0.3637E+00  0.2379E+00
  -4.810  0.3664E+00  0.2416E+00
  -4.800  0.3686E+00  0.2453E+00
  -4.790  0.3705E+00  0.2490E+00
  -4.780  0.3724E+00  0.2527E+00
  -4.770  0.3743E+00  0.2564E+00
  -4.760  0.3762E+00  0.2602E+00
  -4.750  0.3781E+00  0.2639E+00
  -4.740  0.3800E+00  0.2677E+00
  -4.730  0.3819E+00  0.2715E+00
  -4.720  0.3838E+00  0.2754E+00
  -4.710  0.3858E+00  0.2792E+00
  -4.700  0.3877E+00  0.2831E+00
  -4.690  0.3897E+00  0.2870E+00
  -4.680  0.3917E+00  0.2909E+00
  -4.670  0.3936E+00  0.2948E+00
  -4.660  0.3955E+00  0.2987E+00
  -4.650  0.3974E+00  0.3027E+00
  -4.640  0.3992E+00  0.3067E+00
  -4.630  0.4011E+00  0.3107E+00
  -4.620  0.4029E+00  0.3147E+00
  -4.610  0.4047E+00  0.3188E+00
  -4.600  0.4063E+00  0.3228E+00
  -4.590  0.4081E+00  0.3269E+00
  -4.580  0.4101E+00  0.3310E+00
  -4.570  0.4124E+00  0.3351E+00
  -4.560  0.4148E+00  0.3392E+00
  -4.550  0.4173E+00  0.3434E+00
  -4.540  0.4198E+00  0.3476E+00
  -4.530  0.4225E+00  0.3518E+00
  -4.520  0.4252E+00  0.3560E+00
  -4.510  0.4279E+00  0.3603E+00
  -4.500  0.4307E+00  0.3646E+00
  -4.490  0.4336E+00  0.3689E+00
  -4.480  0.4365E+00  0.3733E+00
  -4.470  0.4395E+00  0.3776E+00
  -4.460  0.4425E+00  0.3820E+00
  -4.450  0.4455E+00  0.3865E+00
  -4.440  0.4486E+00  0.3910E+00
  -4.430  0.4517E+00  0.3955E+00
  -4.420  0.4548E+00  0.4000E+00
  -4.410  0.4579E+00  0.4045E+00
  -4.400  0.4611E+00  0.4091E+00
  -4.390  0.4643E+00  0.4138E+00
  -4.380  0.4675E+00  0.4184E+00
  -4.370  0.4699E+00  0.4231E+00
  -4.360  0.4717E+00  0.4278E+00
  -4.350  0.4732E+00  0.4326E+00
  -4.340  0.4744E+00  0.4373E+00
  -4.330  0.4764E+00  0.4420E+00
  -4.320  0.4783E+00  0.4468E+00
  -4.310  0.4801E+00  0.4516E+00
  -4.300  0.4819E+00  0.4564E+00
  -4.290  0.4837E+00  0.4612E+00
  -4.280  0.4854E+00  0.4661E+00
  -4.270  0.4870E+00  0.4710E+00
  -4.260  0.4886E+00  0.4758E+00
  -4.250  0.4901E+00  0.4807E+00
  -4.240  0.4918E+00  0.4856E+00
  -4.230  0.4938E+00  0.4906E+00
  -4.220  0.4961E+00  0.4955E+00
  -4.210  0.4987E+00  0.5005E+00
  -4.200  0.5015E+00  0.5055E+00
  -4.190  0.5047E+00  0.5105E+00
  -4.180  0.5073E+00  0.5156E+00
  -4.170  0.5100E+00  0.5207E+00
  -4.160  0.5126E+00  0.5258E+00
  -4.150  0.5153E+00  0.5309E+00
  -4.140  0.5181E+00  0.5361E+00
  -4.130  0.5208E+00  0.5413E+00
  -4.120  0.5236E+00  0.5465E+00
  -4.110  0.5264E+00  0.5518E+00
  -4.100  0.5292E+00  0.5570E+00
  -4.090  0.5320E+00  0.5623E+00
  -4.080  0.5349E+00  0.5677E+00
  -4.070  0.5377E+00  0.5730E+00
  -4.060  0.5406E+00  0.5784E+00
  -4.050  0.5435E+00  0.5838E+00
  -4.040  0.5464E+00  0.5893E+00
  -4.030  0.5493E+00  0.5948E+00
  -4.020  0.5522E+00  0.6003E+00
  -4.010  0.5552E+00  0.6058E+00
  -4.000  0.5581E+00  0.6114E+00
  -3.990  0.5611E+00  0.6170E+00
  -3.980  0.5641E+00  0.6226E+00
  -3.970  0.5671E+00  0.6283E+00
  -3.960  0.5701E+00  0.6339E+00
  -3.950  0.5734E+00  0.6397E+00
  -3.940  0.5770E+00  0.6454E+00
  -3.930  0.5807E+00  0.6512E+00
  -3.920  0.5845E+00  0.6570E+00
  -3.910  0.5885E+00  0.6629E+00
  -3.900  0.5926E+00  0.6688E+00
  -3.890  0.5967E+00  0.6747E+00
  -3.880  0.6010E+00  0.6807E+00
  -3.870  0.6054E+00  0.6868E+00
  -3.860  0.6099E+00  0.6928E+00
  -3.850  0.6145E+00  0.6990E+00
  -3.840  0.6191E+00  0.7051E+00
  -3.830  0.6240E+00  0.7113E+00
  -3.820  0.6289E+00  0.7176E+00
  -3.810  0.6339E+00  0.7239E+00
  -3.800  0.6391E+00  0.7303E+00
  -3.790  0.6443E+00  0.7367E+00
  -3.780  0.6495E+00  0.7432E+00
  -3.770  0.6547E+00  0.7497E+00
  -3.760  0.6599E+00  0.7563E+00
  -3.750  0.6652E+00  0.7629E+00
  -3.740  0.6704E+00  0.7696E+00
  -3.730  0.6753E+00  0.7763E+00
  -3.720  0.6806E+00  0.7831E+00
  -3.710  0.6865E+00  0.7899E+00
  -3.700  0.6925E+00  0.7968E+00
  -3.690  0.6987E+00  0.8038E+00
  -3.680  0.7049E+00  0.8108E+00
  -3.670  0.7113E+00  0.8179E+00
  -3.660  0.7178E+00  0.8250E+00
  -3.650  0.7245E+00  0.8322E+00
  -3.640  0.7312E+00  0.8395E+00
  -3.630  0.7381E+00  0.8468E+00
  -3.620  0.7452E+00  0.8543E+00
  -3.610  0.7523E+00  0.8618E+00
  -3.600  0.7731E+00  0.8694E+00
  -3.590  0.8189E+00  0.8773E+00
  -3.580  0.8335E+00  0.8856E+00
  -3.570  0.8468E+00  0.8940E+00
  -3.560  0.8587E+00  0.9025E+00
  -3.550  0.8693E+00  0.9111E+00
  -3.540  0.8785E+00  0.9199E+00
  -3.530  0.8864E+00  0.9287E+00
  -3.520  0.8929E+00  0.9376E+00
  -3.510  0.8981E+00  0.9466E+00
  -3.500  0.9017E+00  0.9556E+00
  -3.490  0.9001E+00  0.9646E+00
  -3.480  0.8917E+00  0.9735E+00
  -3.470  0.8765E+00  0.9824E+00
  -3.460  0.8673E+00  0.9911E+00
  -3.450  0.8646E+00  0.9998E+00
  -3.440  0.8620E+00  0.1008E+01
  -3.430  0.8596E+00  0.1017E+01
  -3.420  0.8573E+00  0.1026E+01
  -3.410  0.8551E+00  0.1034E+01
  -3.400  0.8531E+00  0.1043E+01
  -3.390  0.8512E+00  0.1051E+01
  -3.380  0.8494E+00  0.1060E+01
  -3.370  0.8478E+00  0.1068E+01
  -3.360  0.8462E+00  0.1077E+01
  -3.350  0.8448E+00  0.1085E+01
  -3.340  0.8435E+00  0.1094E+01
  -3.330  0.8422E+00  0.1102E+01
  -3.320  0.8408E+00  0.1110E+01
  -3.310  0.8393E+00  0.1119E+01
  -3.300  0.8377E+00  0.1127E+01
  -3.290  0.8360E+00  0.1136E+01
  -3.280  0.8343E+00  0.1144E+01
  -3.270  0.8325E+00  0.1152E+01
  -3.260  0.8307E+00  0.1161E+01
  -3.250  0.8226E+00  0.1169E+01
  -3.240  0.8162E+00  0.1177E+01
  -3.230  0.8131E+00  0.1185E+01
  -3.220  0.8122E+00  0.1193E+01
  -3.210  0.8110E+00  0.1201E+01
  -3.200  0.8094E+00  0.1210E+01
  -3.190  0.8072E+00  0.1218E+01
  -3.180  0.8047E+00  0.1226E+01
  -3.170  0.8017E+00  0.1234E+01
  -3.160  0.8001E+00  0.1242E+01
  -3.150  0.8003E+00  0.1250E+01
  -3.140  0.8024E+00  0.1258E+01
  -3.130  0.8064E+00  0.1266E+01
  -3.120  0.8104E+00  0.1274E+01
  -3.110  0.8054E+00  0.1282E+01
  -3.100  0.7991E+00  0.1290E+01
  -3.090  0.7925E+00  0.1298E+01
  -3.080  0.7863E+00  0.1306E+01
  -3.070  0.7803E+00  0.1314E+01
  -3.060  0.7745E+00  0.1321E+01
  -3.050  0.7690E+00  0.1329E+01
  -3.040  0.7638E+00  0.1337E+01
  -3.030  0.7588E+00  0.1344E+01
  -3.020  0.7540E+00  0.1352E+01
  -3.010  0.7495E+00  0.1359E+01
  -3.000  0.7453E+00  0.1367E+01
  -2.990  0.7413E+00  0.1374E+01
  -2.980  0.7373E+00  0.1382E+01
  -2.970  0.7325E+00  0.1389E+01
  -2.960  0.7278E+00  0.1396E+01
  -2.950  0.7233E+00  0.1404E+01
  -2.940  0.7189E+00  0.1411E+01
  -2.930  0.7147E+00  0.1418E+01
  -2.920  0.7106E+00  0.1425E+01
  -2.910  0.7066E+00  0.1432E+01
  -2.900  0.7027E+00  0.1439E+01
  -2.890  0.6990E+00  0.1446E+01
  -2.880  0.6953E+00  0.1453E+01
  -2.870  0.6919E+00  0.1460E+01
  -2.860  0.6885E+00  0.1467E+01
  -2.850  0.6853E+00  0.1474E+01
  -2.840  0.6822E+00  0.1481E+01
  -2.830  0.6792E+00  0.1488E+01
  -2.820  0.6764E+00  0.1494E+01
  -2.810  0.6737E+00  0.1501E+01
  -2.800  0.6712E+00  0.1508E+01
  -2.790  0.6688E+00  0.1515E+01
  -2.780  0.6666E+00  0.1521E+01
  -2.770  0.6643E+00  0.1528E+01
  -2.760  0.6620E+00  0.1535E+01
  -2.750  0.6597E+00  0.1541E+01
  -2.740  0.6573E+00  0.1548E+01
  -2.730  0.6549E+00  0.1554E+01
  -2.720  0.6524E+00  0.1561E+01
  -2.710  0.6500E+00  0.1567E+01
  -2.700  0.6474E+00  0.1574E+01
  -2.690  0.6449E+00  0.1580E+01
  -2.680  0.6423E+00  0.1587E+01
  -2.670  0.6396E+00  0.1593E+01
  -2.660  0.6369E+00  0.1600E+01
  -2.650  0.6342E+00  0.1606E+01
  -2.640  0.6314E+00  0.1612E+01
  -2.630  0.6286E+00  0.1619E+01
  -2.620  0.6275E+00  0.1625E+01
  -2.610  0.6289E+00  0.1631E+01
  -2.600  0.6329E+00  0.1637E+01
  -2.590  0.6395E+00  0.1644E+01
  -2.580  0.6486E+00  0.1650E+01
  -2.570  0.6603E+00  0.1657E+01
  -2.560  0.6743E+00  0.1663E+01
  -2.550  0.6055E+00  0.1670E+01
  -2.540  0.6033E+00  0.1676E+01
  -2.530  0.6011E+00  0.1682E+01
  -2.520  0.5989E+00  0.1688E+01
  -2.510  0.5966E+00  0.1694E+01
  -2.500  0.5943E+00  0.1700E+01
  -2.490  0.5920E+00  0.1706E+01
  -2.480  0.5897E+00  0.1712E+01
  -2.470  0.5874E+00  0.1717E+01
  -2.460  0.5850E+00  0.1723E+01
  -2.450  0.5826E+00  0.1729E+01
  -2.440  0.5801E+00  0.1735E+01
  -2.430  0.5777E+00  0.1741E+01
  -2.420  0.5752E+00  0.1746E+01
  -2.410  0.5726E+00  0.1752E+01
  -2.400  0.5701E+00  0.1758E+01
  -2.390  0.5675E+00  0.1764E+01
  -2.380  0.5649E+00  0.1769E+01
  -2.370  0.5623E+00  0.1775E+01
  -2.360  0.5596E+00  0.1781E+01
  -2.350  0.5570E+00  0.1786E+01
  -2.340  0.5542E+00  0.1792E+01
  -2.330  0.5515E+00  0.1797E+01
  -2.320  0.5487E+00  0.1803E+01
  -2.310  0.5460E+00  0.1808E+01
  -2.300  0.5438E+00  0.1814E+01
  -2.290  0.5427E+00  0.1819E+01
  -2.280  0.5418E+00  0.1824E+01
  -2.270  0.5400E+00  0.1830E+01
  -2.260  0.5380E+00  0.1835E+01
  -2.250  0.5357E+00  0.1841E+01
  -2.240  0.5331E+00  0.1846E+01
  -2.230  0.5302E+00  0.1851E+01
  -2.220  0.5271E+00  0.1857E+01
  -2.210  0.5237E+00  0.1862E+01
  -2.200  0.5201E+00  0.1867E+01
  -2.190  0.5161E+00  0.1872E+01
  -2.180  0.5111E+00  0.1877E+01
  -2.170  0.5047E+00  0.1882E+01
  -2.160  0.4975E+00  0.1887E+01
  -2.150  0.4895E+00  0.1892E+01
  -2.140  0.4807E+00  0.1897E+01
  -2.130  0.4712E+00  0.1902E+01
  -2.120  0.4608E+00  0.1907E+01
  -2.110  0.4497E+00  0.1911E+01
  -2.100  0.4377E+00  0.1916E+01
  -2.090  0.4250E+00  0.1920E+01
  -2.080  0.4115E+00  0.1924E+01
  -2.070  0.3970E+00  0.1928E+01
  -2.060  0.3801E+00  0.1932E+01
  -2.050  0.3637E+00  0.1936E+01
  -2.040  0.3478E+00  0.1939E+01
  -2.030  0.3325E+00  0.1943E+01
  -2.020  0.3180E+00  0.1946E+01
  -2.010  0.3063E+00  0.1949E+01
  -2.000  0.2948E+00  0.1952E+01
  -1.990  0.2834E+00  0.1955E+01
  -1.980  0.2723E+00  0.1958E+01
  -1.970  0.2613E+00  0.1961E+01
  -1.960  0.2505E+00  0.1963E+01
  -1.950  0.2399E+00  0.1966E+01
  -1.940  0.2295E+00  0.1968E+01
  -1.930  0.2192E+00  0.1970E+01
  -1.920  0.2092E+00  0.1972E+01
  -1.910  0.1993E+00  0.1974E+01
  -1.900  0.1896E+00  0.1976E+01
  -1.890  0.1801E+00  0.1978E+01
  -1.880  0.1708E+00  0.1980E+01
  -1.870  0.1617E+00  0.1981E+01
  -1.860  0.1528E+00  0.1983E+01
  -1.850  0.1440E+00  0.1985E+01
  -1.840  0.1354E+00  0.1986E+01
  -1.830  0.1270E+00  0.1987E+01
  -1.820  0.1189E+00  0.1988E+01
  -1.810  0.1108E+00  0.1990E+01
  -1.800  0.1031E+00  0.1991E+01
  -1.790  0.9561E-01  0.1992E+01
  -1.780  0.8839E-01  0.1993E+01
  -1.770  0.8145E-01  0.1993E+01
  -1.760  0.7477E-01  0.1994E+01
  -1.750  0.6836E-01  0.1995E+01
  -1.740  0.6221E-01  0.1996E+01
  -1.730  0.5634E-01  0.1996E+01
  -1.720  0.5073E-01  0.1997E+01
  -1.710  0.4539E-01  0.1997E+01
  -1.700  0.4032E-01  0.1998E+01
  -1.690  0.3552E-01  0.1998E+01
  -1.680  0.3098E-01  0.1998E+01
  -1.670  0.2679E-01  0.1999E+01
  -1.660  0.2307E-01  0.1999E+01
  -1.650  0.1983E-01  0.1999E+01
  -1.640  0.1707E-01  0.1999E+01
  -1.630  0.1550E-01  0.1999E+01
  -1.620  0.1442E-01  0.2000E+01
  -1.610  0.1368E-01  0.2000E+01
  -1.600  0.1325E-01  0.2000E+01
  -1.590  0.1315E-01  0.2000E+01
  -1.580  0.1338E-01  0.2000E+01
  -1.570  0.1393E-01  0.2000E+01
  -1.560  0.1481E-01  0.2000E+01
  -1.550  0.1601E-01  0.2001E+01
  -1.540  0.1765E-01  0.2001E+01
  -1.530  0.1981E-01  0.2001E+01
  -1.520  0.2249E-01  0.2001E+01
  -1.510  0.2569E-01  0.2001E+01
  -1.500  0.2939E-01  0.2002E+01
  -1.490  0.3341E-01  0.2002E+01
  -1.480  0.3771E-01  0.2002E+01
  -1.470  0.4229E-01  0.2003E+01
  -1.460  0.4715E-01  0.2003E+01
  -1.450  0.5229E-01  0.2004E+01
  -1.440  0.5772E-01  0.2004E+01
  -1.430  0.6342E-01  0.2005E+01
  -1.420  0.6941E-01  0.2006E+01
  -1.410  0.7566E-01  0.2006E+01
  -1.400  0.8209E-01  0.2007E+01
  -1.390  0.8866E-01  0.2008E+01
  -1.380  0.9538E-01  0.2009E+01
  -1.370  0.1022E+00  0.2010E+01
  -1.360  0.1093E+00  0.2011E+01
  -1.350  0.1164E+00  0.2012E+01
  -1.340  0.1237E+00  0.2013E+01
  -1.330  0.1312E+00  0.2014E+01
  -1.320  0.1388E+00  0.2016E+01
  -1.310  0.1465E+00  0.2017E+01
  -1.300  0.1544E+00  0.2019E+01
  -1.290  0.1625E+00  0.2020E+01
  -1.280  0.1707E+00  0.2022E+01
  -1.270  0.1790E+00  0.2024E+01
  -1.260  0.1875E+00  0.2026E+01
  -1.250  0.1961E+00  0.2027E+01
  -1.240  0.2049E+00  0.2029E+01
  -1.230  0.2138E+00  0.2032E+01
  -1.220  0.2229E+00  0.2034E+01
  -1.210  0.2321E+00  0.2036E+01
  -1.200  0.2415E+00  0.2038E+01
  -1.190  0.2510E+00  0.2041E+01
  -1.180  0.2606E+00  0.2043E+01
  -1.170  0.2704E+00  0.2046E+01
  -1.160  0.2804E+00  0.2049E+01
  -1.150  0.2905E+00  0.2052E+01
  -1.140  0.3007E+00  0.2055E+01
  -1.130  0.3111E+00  0.2058E+01
  -1.120  0.3217E+00  0.2061E+01
  -1.110  0.3327E+00  0.2064E+01
  -1.100  0.3485E+00  0.2068E+01
  -1.090  0.3641E+00  0.2071E+01
  -1.080  0.3798E+00  0.2075E+01
  -1.070  0.3954E+00  0.2079E+01
  -1.060  0.4110E+00  0.2083E+01
  -1.050  0.4266E+00  0.2087E+01
  -1.040  0.4422E+00  0.2091E+01
  -1.030  0.4577E+00  0.2096E+01
  -1.020  0.4732E+00  0.2100E+01
  -1.010  0.4886E+00  0.2105E+01
  -1.000  0.5040E+00  0.2110E+01
  -0.990  0.5163E+00  0.2115E+01
  -0.980  0.5257E+00  0.2120E+01
  -0.970  0.5348E+00  0.2126E+01
  -0.960  0.5436E+00  0.2131E+01
  -0.950  0.5522E+00  0.2137E+01
  -0.940  0.5604E+00  0.2142E+01
  -0.930  0.5684E+00  0.2148E+01
  -0.920  0.5761E+00  0.2154E+01
  -0.910  0.5831E+00  0.2159E+01
  -0.900  0.5895E+00  0.2165E+01
  -0.890  0.5962E+00  0.2171E+01
  -0.880  0.6032E+00  0.2177E+01
  -0.870  0.6107E+00  0.2183E+01
  -0.860  0.6202E+00  0.2189E+01
  -0.850  0.6317E+00  0.2196E+01
  -0.840  0.6453E+00  0.2202E+01
  -0.830  0.6609E+00  0.2209E+01
  -0.820  0.6787E+00  0.2215E+01
  -0.810  0.6985E+00  0.2222E+01
  -0.800  0.7204E+00  0.2229E+01
  -0.790  0.7444E+00  0.2237E+01
  -0.780  0.7704E+00  0.2244E+01
  -0.770  0.7986E+00  0.2252E+01
  -0.760  0.9135E+00  0.2261E+01
  -0.750  0.8874E+00  0.2269E+01
  -0.740  0.9314E+00  0.2279E+01
  -0.730  0.9805E+00  0.2288E+01
  -0.720  0.1035E+01  0.2298E+01
  -0.710  0.1094E+01  0.2309E+01
  -0.700  0.1159E+01  0.2320E+01
  -0.690  0.1235E+01  0.2332E+01
  -0.680  0.1324E+01  0.2345E+01
  -0.670  0.1424E+01  0.2359E+01
  -0.660  0.1549E+01  0.2374E+01
  -0.650  0.1554E+01  0.2389E+01
  -0.640  0.1545E+01  0.2405E+01
  -0.630  0.1534E+01  0.2420E+01
  -0.620  0.1520E+01  0.2435E+01
  -0.610  0.1493E+01  0.2450E+01
  -0.600  0.1478E+01  0.2465E+01
  -0.590  0.1462E+01  0.2480E+01
  -0.580  0.1445E+01  0.2494E+01
  -0.570  0.1430E+01  0.2509E+01
  -0.560  0.1414E+01  0.2523E+01
  -0.550  0.1397E+01  0.2537E+01
  -0.540  0.1379E+01  0.2551E+01
  -0.530  0.1360E+01  0.2565E+01
  -0.520  0.1340E+01  0.2578E+01
  -0.510  0.1319E+01  0.2591E+01
  -0.500  0.1296E+01  0.2605E+01
  -0.490  0.1273E+01  0.2617E+01
  -0.480  0.1249E+01  0.2630E+01
  -0.470  0.1225E+01  0.2642E+01
  -0.460  0.1201E+01  0.2654E+01
  -0.450  0.1177E+01  0.2666E+01
  -0.440  0.1153E+01  0.2678E+01
  -0.430  0.1128E+01  0.2689E+01
  -0.420  0.1103E+01  0.2701E+01
  -0.410  0.1077E+01  0.2712E+01
  -0.400  0.1052E+01  0.2722E+01
  -0.390  0.1028E+01  0.2733E+01
  -0.380  0.1005E+01  0.2743E+01
  -0.370  0.9824E+00  0.2753E+01
  -0.360  0.9612E+00  0.2762E+01
  -0.350  0.9410E+00  0.2772E+01
  -0.340  0.9218E+00  0.2781E+01
  -0.330  0.9035E+00  0.2790E+01
  -0.320  0.8862E+00  0.2799E+01
  -0.310  0.8699E+00  0.2808E+01
  -0.300  0.8545E+00  0.2817E+01
  -0.290  0.8401E+00  0.2825E+01
  -0.280  0.8267E+00  0.2833E+01
  -0.270  0.8143E+00  0.2842E+01
  -0.260  0.8029E+00  0.2850E+01
  -0.250  0.7927E+00  0.2858E+01
  -0.240  0.7833E+00  0.2866E+01
  -0.230  0.7744E+00  0.2873E+01
  -0.220  0.7657E+00  0.2881E+01
  -0.210  0.7571E+00  0.2889E+01
  -0.200  0.7487E+00  0.2896E+01
  -0.190  0.7404E+00  0.2904E+01
  -0.180  0.7322E+00  0.2911E+01
  -0.170  0.7242E+00  0.2918E+01
  -0.160  0.7166E+00  0.2926E+01
  -0.150  0.7097E+00  0.2933E+01
  -0.140  0.7028E+00  0.2940E+01
  -0.130  0.6960E+00  0.2947E+01
  -0.120  0.6893E+00  0.2954E+01
  -0.110  0.6826E+00  0.2961E+01
  -0.100  0.6759E+00  0.2967E+01
  -0.090  0.6693E+00  0.2974E+01
  -0.080  0.6627E+00  0.2981E+01
  -0.070  0.6561E+00  0.2987E+01
  -0.060  0.6496E+00  0.2994E+01
  -0.050  0.6431E+00  0.3000E+01
  -0.040  0.6367E+00  0.3007E+01
  -0.030  0.6304E+00  0.3013E+01
  -0.020  0.6243E+00  0.3019E+01
  -0.010  0.6184E+00  0.3026E+01
  -0.000  0.6125E+00  0.3032E+01
   0.010  0.6068E+00  0.3038E+01
   0.020  0.6012E+00  0.3044E+01
   0.030  0.5958E+00  0.3050E+01
   0.040  0.5905E+00  0.3056E+01
   0.050  0.5853E+00  0.3062E+01
   0.060  0.5803E+00  0.3067E+01
   0.070  0.5753E+00  0.3073E+01
   0.080  0.5705E+00  0.3079E+01
   0.090  0.5658E+00  0.3085E+01
   0.100  0.5613E+00  0.3090E+01
   0.110  0.5569E+00  0.3096E+01
   0.120  0.5526E+00  0.3101E+01
   0.130  0.5482E+00  0.3107E+01
   0.140  0.5438E+00  0.3112E+01
   0.150  0.5401E+00  0.3118E+01
   0.160  0.5365E+00  0.3123E+01
   0.170  0.5328E+00  0.3128E+01
   0.180  0.5293E+00  0.3134E+01
   0.190  0.5257E+00  0.3139E+01
   0.200  0.5222E+00  0.3144E+01
   0.210  0.5187E+00  0.3150E+01
   0.220  0.5152E+00  0.3155E+01
   0.230  0.5117E+00  0.3160E+01
   0.240  0.5083E+00  0.3165E+01
   0.250  0.5049E+00  0.3170E+01
   0.260  0.5016E+00  0.3175E+01
   0.270  0.4982E+00  0.3180E+01
   0.280  0.4949E+00  0.3185E+01
   0.290  0.4917E+00  0.3190E+01
   0.300  0.4884E+00  0.3195E+01
   0.310  0.4852E+00  0.3200E+01
   0.320  0.4820E+00  0.3205E+01
   0.330  0.4788E+00  0.3209E+01
   0.340  0.4757E+00  0.3214E+01
   0.350  0.4726E+00  0.3219E+01
   0.360  0.4695E+00  0.3224E+01
   0.370  0.4664E+00  0.3228E+01
   0.380  0.4634E+00  0.3233E+01
   0.390  0.4604E+00  0.3237E+01
   0.400  0.4574E+00  0.3242E+01
   0.410  0.4544E+00  0.3247E+01
   0.420  0.4515E+00  0.3251E+01
   0.430  0.4486E+00  0.3256E+01
   0.440  0.4457E+00  0.3260E+01
   0.450  0.4428E+00  0.3265E+01
   0.460  0.4399E+00  0.3269E+01
   0.470  0.4371E+00  0.3273E+01
   0.480  0.4342E+00  0.3278E+01
   0.490  0.4333E+00  0.3282E+01
   0.500  0.4320E+00  0.3286E+01
   0.510  0.4302E+00  0.3291E+01
   0.520  0.4280E+00  0.3295E+01
   0.530  0.4257E+00  0.3299E+01
   0.540  0.4234E+00  0.3304E+01
   0.550  0.4210E+00  0.3308E+01
   0.560  0.4186E+00  0.3312E+01
   0.570  0.4162E+00  0.3316E+01
   0.580  0.4138E+00  0.3320E+01
   0.590  0.4113E+00  0.3324E+01
   0.600  0.4089E+00  0.3328E+01
   0.610  0.4064E+00  0.3333E+01
   0.620  0.4039E+00  0.3337E+01
   0.630  0.4014E+00  0.3341E+01
   0.640  0.3988E+00  0.3345E+01
   0.650  0.3962E+00  0.3349E+01
   0.660  0.3937E+00  0.3353E+01
   0.670  0.3910E+00  0.3356E+01
   0.680  0.3884E+00  0.3360E+01
   0.690  0.3858E+00  0.3364E+01
   0.700  0.3833E+00  0.3368E+01
   0.710  0.3808E+00  0.3372E+01
   0.720  0.3784E+00  0.3376E+01
   0.730  0.3759E+00  0.3380E+01
   0.740  0.3735E+00  0.3383E+01
   0.750  0.3712E+00  0.3387E+01
   0.760  0.3688E+00  0.3391E+01
   0.770  0.3665E+00  0.3394E+01
   0.780  0.3643E+00  0.3398E+01
   0.790  0.3620E+00  0.3402E+01
   0.800  0.3598E+00  0.3405E+01
   0.810  0.3576E+00  0.3409E+01
   0.820  0.3555E+00  0.3412E+01
   0.830  0.3534E+00  0.3416E+01
   0.840  0.3513E+00  0.3419E+01
   0.850  0.3492E+00  0.3423E+01
   0.860  0.3472E+00  0.3426E+01
   0.870  0.3452E+00  0.3430E+01
   0.880  0.3432E+00  0.3433E+01
   0.890  0.3412E+00  0.3437E+01
   0.900  0.3393E+00  0.3440E+01
   0.910  0.3373E+00  0.3444E+01
   0.920  0.3354E+00  0.3447E+01
   0.930  0.3335E+00  0.3450E+01
   0.940  0.3316E+00  0.3454E+01
   0.950  0.3297E+00  0.3457E+01
   0.960  0.3278E+00  0.3460E+01
   0.970  0.3259E+00  0.3463E+01
   0.980  0.3241E+00  0.3467E+01
   0.990  0.3222E+00  0.3470E+01
   1.000  0.3203E+00  0.3473E+01
   1.010  0.3185E+00  0.3476E+01
   1.020  0.3167E+00  0.3480E+01
   1.030  0.3149E+00  0.3483E+01
   1.040  0.3131E+00  0.3486E+01
   1.050  0.3113E+00  0.3489E+01
   1.060  0.3096E+00  0.3492E+01
   1.070  0.3079E+00  0.3495E+01
   1.080  0.3063E+00  0.3498E+01
   1.090  0.3046E+00  0.3501E+01
   1.100  0.3030E+00  0.3504E+01
   1.110  0.3014E+00  0.3507E+01
   1.120  0.2999E+00  0.3510E+01
   1.130  0.2983E+00  0.3513E+01
   1.140  0.2968E+00  0.3516E+01
   1.150  0.2953E+00  0.3519E+01
   1.160  0.2938E+00  0.3522E+01
   1.170  0.2924E+00  0.3525E+01
   1.180  0.2910E+00  0.3528E+01
   1.190  0.2896E+00  0.3531E+01
   1.200  0.2883E+00  0.3534E+01
   1.210  0.2870E+00  0.3537E+01
   1.220  0.2858E+00  0.3540E+01
   1.230  0.2845E+00  0.3542E+01
   1.240  0.2832E+00  0.3545E+01
   1.250  0.2820E+00  0.3548E+01
   1.260  0.2807E+00  0.3551E+01
   1.270  0.2794E+00  0.3554E+01
   1.280  0.2781E+00  0.3556E+01
   1.290  0.2768E+00  0.3559E+01
   1.300  0.2758E+00  0.3562E+01
   1.310  0.2749E+00  0.3565E+01
   1.320  0.2739E+00  0.3568E+01
   1.330  0.2729E+00  0.3570E+01
   1.340  0.2718E+00  0.3573E+01
   1.350  0.2708E+00  0.3576E+01
   1.360  0.2696E+00  0.3578E+01
   1.370  0.2685E+00  0.3581E+01
   1.380  0.2673E+00  0.3584E+01
   1.390  0.2661E+00  0.3586E+01
   1.400  0.2649E+00  0.3589E+01
   1.410  0.2636E+00  0.3592E+01
   1.420  0.2623E+00  0.3594E+01
   1.430  0.2609E+00  0.3597E+01
   1.440  0.2596E+00  0.3600E+01
   1.450  0.2581E+00  0.3602E+01
   1.460  0.2567E+00  0.3605E+01
   1.470  0.2552E+00  0.3607E+01
   1.480  0.2536E+00  0.3610E+01
   1.490  0.2519E+00  0.3612E+01
   1.500  0.2503E+00  0.3615E+01
   1.510  0.2486E+00  0.3617E+01
   1.520  0.2470E+00  0.3620E+01
   1.530  0.2454E+00  0.3622E+01
   1.540  0.2437E+00  0.3625E+01
   1.550  0.2422E+00  0.3627E+01
   1.560  0.2406E+00  0.3630E+01
   1.570  0.2390E+00  0.3632E+01
   1.580  0.2375E+00  0.3634E+01
   1.590  0.2360E+00  0.3637E+01
   1.600  0.2345E+00  0.3639E+01
   1.610  0.2330E+00  0.3641E+01
   1.620  0.2315E+00  0.3644E+01
   1.630  0.2300E+00  0.3646E+01
   1.640  0.2286E+00  0.3648E+01
   1.650  0.2272E+00  0.3651E+01
   1.660  0.2257E+00  0.3653E+01
   1.670  0.2244E+00  0.3655E+01
   1.680  0.2231E+00  0.3657E+01
   1.690  0.2231E+00  0.3660E+01
   1.700  0.2244E+00  0.3662E+01
   1.710  0.2270E+00  0.3664E+01
   1.720  0.2310E+00  0.3666E+01
   1.730  0.2362E+00  0.3669E+01
   1.740  0.2427E+00  0.3671E+01
   1.750  0.2507E+00  0.3674E+01
   1.760  0.2602E+00  0.3676E+01
   1.770  0.2710E+00  0.3679E+01
   1.780  0.2832E+00  0.3682E+01
   1.790  0.2967E+00  0.3684E+01
   1.800  0.3115E+00  0.3688E+01
   1.810  0.3276E+00  0.3691E+01
   1.820  0.3450E+00  0.3694E+01
   1.830  0.3638E+00  0.3698E+01
   1.840  0.3839E+00  0.3701E+01
   1.850  0.5070E+00  0.3706E+01
   1.860  0.6046E+00  0.3711E+01
   1.870  0.6728E+00  0.3718E+01
   1.880  0.7177E+00  0.3725E+01
   1.890  0.7615E+00  0.3732E+01
   1.900  0.8111E+00  0.3740E+01
   1.910  0.8581E+00  0.3748E+01
   1.920  0.9024E+00  0.3757E+01
   1.930  0.9442E+00  0.3766E+01
   1.940  0.9834E+00  0.3776E+01
   1.950  0.1018E+01  0.3786E+01
   1.960  0.1047E+01  0.3796E+01
   1.970  0.1075E+01  0.3807E+01
   1.980  0.1103E+01  0.3818E+01
   1.990  0.1130E+01  0.3829E+01
   2.000  0.1156E+01  0.3840E+01
   2.010  0.1182E+01  0.3852E+01
   2.020  0.1196E+01  0.3864E+01
   2.030  0.1205E+01  0.3876E+01
   2.040  0.1212E+01  0.3888E+01
   2.050  0.1218E+01  0.3900E+01
   2.060  0.1222E+01  0.3913E+01
   2.070  0.1225E+01  0.3925E+01
   2.080  0.1226E+01  0.3937E+01
   2.090  0.1225E+01  0.3949E+01
   2.100  0.1220E+01  0.3961E+01
   2.110  0.1213E+01  0.3974E+01
   2.120  0.1205E+01  0.3986E+01
   2.130  0.1197E+01  0.3998E+01
   2.140  0.1188E+01  0.4010E+01
   2.150  0.1179E+01  0.4022E+01
   2.160  0.1169E+01  0.4033E+01
   2.170  0.1159E+01  0.4045E+01
   2.180  0.1149E+01  0.4056E+01
   2.190  0.1141E+01  0.4068E+01
   2.200  0.1133E+01  0.4079E+01
   2.210  0.1127E+01  0.4091E+01
   2.220  0.1123E+01  0.4102E+01
   2.230  0.1119E+01  0.4113E+01
   2.240  0.1115E+01  0.4124E+01
   2.250  0.1112E+01  0.4135E+01
   2.260  0.1109E+01  0.4146E+01
   2.270  0.1107E+01  0.4157E+01
   2.280  0.1105E+01  0.4169E+01
   2.290  0.1103E+01  0.4180E+01
   2.300  0.1101E+01  0.4191E+01
   2.310  0.1099E+01  0.4202E+01
   2.320  0.1097E+01  0.4213E+01
   2.330  0.1096E+01  0.4224E+01
   2.340  0.1095E+01  0.4235E+01
   2.350  0.1106E+01  0.4245E+01
   2.360  0.1121E+01  0.4257E+01
   2.370  0.1105E+01  0.4268E+01
   2.380  0.1090E+01  0.4279E+01
   2.390  0.1076E+01  0.4290E+01
   2.400  0.1064E+01  0.4300E+01
   2.410  0.1053E+01  0.4311E+01
   2.420  0.1044E+01  0.4321E+01
   2.430  0.1036E+01  0.4332E+01
   2.440  0.1030E+01  0.4342E+01
   2.450  0.1025E+01  0.4352E+01
   2.460  0.1021E+01  0.4363E+01
   2.470  0.1019E+01  0.4373E+01
   2.480  0.1017E+01  0.4383E+01
   2.490  0.1016E+01  0.4393E+01
   2.500  0.1014E+01  0.4403E+01
   2.510  0.1013E+01  0.4413E+01
   2.520  0.1012E+01  0.4424E+01
   2.530  0.1011E+01  0.4434E+01
   2.540  0.1011E+01  0.4444E+01
   2.550  0.1019E+01  0.4454E+01
   2.560  0.1025E+01  0.4464E+01
   2.570  0.1026E+01  0.4474E+01
   2.580  0.1022E+01  0.4485E+01
   2.590  0.1015E+01  0.4495E+01
   2.600  0.1002E+01  0.4505E+01
   2.610  0.9929E+00  0.4515E+01
   2.620  0.9911E+00  0.4525E+01
   2.630  0.9903E+00  0.4535E+01
   2.640  0.9904E+00  0.4545E+01
   2.650  0.9915E+00  0.4555E+01
   2.660  0.9937E+00  0.4564E+01
   2.670  0.9965E+00  0.4574E+01
   2.680  0.9989E+00  0.4584E+01
   2.690  0.1001E+01  0.4594E+01
   2.700  0.1002E+01  0.4604E+01
   2.710  0.1003E+01  0.4614E+01
   2.720  0.1005E+01  0.4624E+01
   2.730  0.1007E+01  0.4635E+01
   2.740  0.1009E+01  0.4645E+01
   2.750  0.1011E+01  0.4655E+01
   2.760  0.1014E+01  0.4665E+01
   2.770  0.1017E+01  0.4675E+01
   2.780  0.1020E+01  0.4685E+01
   2.790  0.1024E+01  0.4695E+01
   2.800  0.1027E+01  0.4706E+01
   2.810  0.1031E+01  0.4716E+01
   2.820  0.1035E+01  0.4726E+01
   2.830  0.1039E+01  0.4737E+01
   2.840  0.1043E+01  0.4747E+01
   2.850  0.1047E+01  0.4757E+01
   2.860  0.1051E+01  0.4768E+01
   2.870  0.1055E+01  0.4779E+01
   2.880  0.1060E+01  0.4789E+01
   2.890  0.1065E+01  0.4800E+01
   2.900  0.1069E+01  0.4810E+01
   2.910  0.1074E+01  0.4821E+01
   2.920  0.1080E+01  0.4832E+01
   2.930  0.1085E+01  0.4843E+01
   2.940  0.1091E+01  0.4854E+01
   2.950  0.1097E+01  0.4865E+01
   2.960  0.1127E+01  0.4876E+01
   2.970  0.1309E+01  0.4888E+01
   2.980  0.1187E+01  0.4900E+01
   2.990  0.1186E+01  0.4912E+01
   3.000  0.1182E+01  0.4924E+01
   3.010  0.1176E+01  0.4936E+01
   3.020  0.1180E+01  0.4948E+01
   3.030  0.1186E+01  0.4960E+01
   3.040  0.1191E+01  0.4971E+01
   3.050  0.1197E+01  0.4983E+01
   3.060  0.1205E+01  0.4995E+01
   3.070  0.1213E+01  0.5007E+01
   3.080  0.1221E+01  0.5020E+01
   3.090  0.1230E+01  0.5032E+01
   3.100  0.1239E+01  0.5044E+01
   3.110  0.1248E+01  0.5057E+01
   3.120  0.1257E+01  0.5069E+01
   3.130  0.1266E+01  0.5082E+01
   3.140  0.1276E+01  0.5095E+01
   3.150  0.1285E+01  0.5107E+01
   3.160  0.1295E+01  0.5120E+01
   3.170  0.1305E+01  0.5133E+01
   3.180  0.1318E+01  0.5146E+01
   3.190  0.1333E+01  0.5160E+01
   3.200  0.1349E+01  0.5173E+01
   3.210  0.1367E+01  0.5187E+01
   3.220  0.1383E+01  0.5200E+01
   3.230  0.1398E+01  0.5214E+01
   3.240  0.1423E+01  0.5228E+01
   3.250  0.1456E+01  0.5243E+01
   3.260  0.1484E+01  0.5257E+01
   3.270  0.1506E+01  0.5272E+01
   3.280  0.1510E+01  0.5287E+01
   3.290  0.1503E+01  0.5303E+01
   3.300  0.1491E+01  0.5318E+01
   3.310  0.1502E+01  0.5332E+01
   3.320  0.1511E+01  0.5348E+01
   3.330  0.1519E+01  0.5363E+01
   3.340  0.1525E+01  0.5378E+01
   3.350  0.1530E+01  0.5393E+01
   3.360  0.1533E+01  0.5409E+01
   3.370  0.1535E+01  0.5424E+01
   3.380  0.1529E+01  0.5439E+01
   3.390  0.1504E+01  0.5454E+01
   3.400  0.1488E+01  0.5469E+01
   3.410  0.1479E+01  0.5484E+01
   3.420  0.1477E+01  0.5499E+01
   3.430  0.1475E+01  0.5514E+01
   3.440  0.1473E+01  0.5528E+01
   3.450  0.1472E+01  0.5543E+01
   3.460  0.1472E+01  0.5558E+01
   3.470  0.1473E+01  0.5573E+01
   3.480  0.1474E+01  0.5587E+01
   3.490  0.1476E+01  0.5602E+01
   3.500  0.1478E+01  0.5617E+01
   3.510  0.1482E+01  0.5632E+01
   3.520  0.1512E+01  0.5647E+01
   3.530  0.1532E+01  0.5662E+01
   3.540  0.1530E+01  0.5677E+01
   3.550  0.1527E+01  0.5692E+01
   3.560  0.1521E+01  0.5708E+01
   3.570  0.1514E+01  0.5723E+01
   3.580  0.1506E+01  0.5738E+01
   3.590  0.1498E+01  0.5753E+01
   3.600  0.1496E+01  0.5768E+01
   3.610  0.1489E+01  0.5783E+01
   3.620  0.1481E+01  0.5798E+01
   3.630  0.1473E+01  0.5812E+01
   3.640  0.1466E+01  0.5827E+01
   3.650  0.1460E+01  0.5842E+01
   3.660  0.1454E+01  0.5856E+01
   3.670  0.1448E+01  0.5871E+01
   3.680  0.1443E+01  0.5885E+01
   3.690  0.1438E+01  0.5900E+01
   3.700  0.1434E+01  0.5914E+01
   3.710  0.1430E+01  0.5928E+01
   3.720  0.1416E+01  0.5943E+01
   3.730  0.1413E+01  0.5957E+01
   3.740  0.1410E+01  0.5971E+01
   3.750  0.1409E+01  0.5985E+01
   3.760  0.1412E+01  0.5999E+01
   3.770  0.1419E+01  0.6013E+01
   3.780  0.1429E+01  0.6028E+01
   3.790  0.1442E+01  0.6042E+01
   3.800  0.1463E+01  0.6056E+01
   3.810  0.1443E+01  0.6071E+01
   3.820  0.1395E+01  0.6085E+01
   3.830  0.1391E+01  0.6099E+01
   3.840  0.1386E+01  0.6113E+01
   3.850  0.1382E+01  0.6127E+01
   3.860  0.1378E+01  0.6141E+01
   3.870  0.1374E+01  0.6154E+01
   3.880  0.1369E+01  0.6168E+01
   3.890  0.1365E+01  0.6182E+01
   3.900  0.1361E+01  0.6195E+01
   3.910  0.1356E+01  0.6209E+01
   3.920  0.1352E+01  0.6222E+01
   3.930  0.1348E+01  0.6236E+01
   3.940  0.1344E+01  0.6249E+01
   3.950  0.1341E+01  0.6263E+01
   3.960  0.1338E+01  0.6276E+01
   3.970  0.1336E+01  0.6290E+01
   3.980  0.1336E+01  0.6303E+01
   3.990  0.1338E+01  0.6316E+01
   4.000  0.1343E+01  0.6330E+01
   4.010  0.1350E+01  0.6343E+01
   4.020  0.1370E+01  0.6357E+01
   4.030  0.1361E+01  0.6370E+01
   4.040  0.1353E+01  0.6384E+01
   4.050  0.1347E+01  0.6398E+01
   4.060  0.1342E+01  0.6411E+01
   4.070  0.1337E+01  0.6424E+01
   4.080  0.1333E+01  0.6438E+01
   4.090  0.1328E+01  0.6451E+01
   4.100  0.1325E+01  0.6464E+01
   4.110  0.1321E+01  0.6478E+01
   4.120  0.1318E+01  0.6491E+01
   4.130  0.1316E+01  0.6504E+01
   4.140  0.1314E+01  0.6517E+01
   4.150  0.1312E+01  0.6530E+01
   4.160  0.1310E+01  0.6543E+01
   4.170  0.1309E+01  0.6556E+01
   4.180  0.1308E+01  0.6569E+01
   4.190  0.1308E+01  0.6583E+01
   4.200  0.1306E+01  0.6596E+01
   4.210  0.1304E+01  0.6609E+01
   4.220  0.1302E+01  0.6622E+01
   4.230  0.1301E+01  0.6635E+01
   4.240  0.1300E+01  0.6648E+01
   4.250  0.1298E+01  0.6661E+01
   4.260  0.1295E+01  0.6674E+01
   4.270  0.1292E+01  0.6687E+01
   4.280  0.1289E+01  0.6700E+01
   4.290  0.1288E+01  0.6712E+01
   4.300  0.1319E+01  0.6725E+01
   4.310  0.1340E+01  0.6739E+01
   4.320  0.1348E+01  0.6752E+01
   4.330  0.1349E+01  0.6766E+01
   4.340  0.1345E+01  0.6779E+01
   4.350  0.1338E+01  0.6793E+01
   4.360  0.1328E+01  0.6806E+01
   4.370  0.1315E+01  0.6819E+01
   4.380  0.1298E+01  0.6832E+01
   4.390  0.1281E+01  0.6845E+01
   4.400  0.1276E+01  0.6858E+01
   4.410  0.1273E+01  0.6871E+01
   4.420  0.1269E+01  0.6883E+01
   4.430  0.1265E+01  0.6896E+01
   4.440  0.1261E+01  0.6909E+01
   4.450  0.1258E+01  0.6921E+01
   4.460  0.1255E+01  0.6934E+01
   4.470  0.1252E+01  0.6946E+01
   4.480  0.1249E+01  0.6959E+01
   4.490  0.1246E+01  0.6971E+01
   4.500  0.1243E+01  0.6984E+01
   4.510  0.1241E+01  0.6996E+01
   4.520  0.1239E+01  0.7009E+01
   4.530  0.1252E+01  0.7021E+01
   4.540  0.1271E+01  0.7034E+01
   4.550  0.1286E+01  0.7046E+01
   4.560  0.1295E+01  0.7059E+01
   4.570  0.1297E+01  0.7072E+01
   4.580  0.1293E+01  0.7085E+01
   4.590  0.1282E+01  0.7098E+01
   4.600  0.1272E+01  0.7111E+01
   4.610  0.1262E+01  0.7124E+01
   4.620  0.1252E+01  0.7136E+01
   4.630  0.1240E+01  0.7149E+01
   4.640  0.1234E+01  0.7161E+01
   4.650  0.1228E+01  0.7173E+01
   4.660  0.1224E+01  0.7185E+01
   4.670  0.1219E+01  0.7198E+01
   4.680  0.1214E+01  0.7210E+01
   4.690  0.1209E+01  0.7222E+01
   4.700  0.1204E+01  0.7234E+01
   4.710  0.1198E+01  0.7246E+01
   4.720  0.1193E+01  0.7258E+01
   4.730  0.1187E+01  0.7270E+01
   4.740  0.1181E+01  0.7282E+01
   4.750  0.1175E+01  0.7294E+01
   4.760  0.1169E+01  0.7305E+01
   4.770  0.1162E+01  0.7317E+01
   4.780  0.1163E+01  0.7328E+01
   4.790  0.1169E+01  0.7340E+01
   4.800  0.1176E+01  0.7352E+01
   4.810  0.1180E+01  0.7364E+01
   4.820  0.1177E+01  0.7375E+01
   4.830  0.1172E+01  0.7387E+01
   4.840  0.1165E+01  0.7399E+01
   4.850  0.1158E+01  0.7411E+01
   4.860  0.1149E+01  0.7422E+01
   4.870  0.1138E+01  0.7433E+01
   4.880  0.1135E+01  0.7445E+01
   4.890  0.1129E+01  0.7456E+01
   4.900  0.1119E+01  0.7467E+01
   4.910  0.1101E+01  0.7479E+01
   4.920  0.1081E+01  0.7489E+01
   4.930  0.1060E+01  0.7500E+01
   4.940  0.1038E+01  0.7511E+01
   4.950  0.1014E+01  0.7521E+01
   4.960  0.9875E+00  0.7531E+01
   4.970  0.9599E+00  0.7541E+01
   4.980  0.9319E+00  0.7550E+01
   4.990  0.9036E+00  0.7559E+01
   5.000  0.8769E+00  0.7568E+01
   5.010  0.8532E+00  0.7577E+01
   5.020  0.8323E+00  0.7585E+01
   5.030  0.8143E+00  0.7593E+01
   5.040  0.7991E+00  0.7602E+01
   5.050  0.7851E+00  0.7609E+01
   5.060  0.7712E+00  0.7617E+01
   5.070  0.7576E+00  0.7625E+01
   5.080  0.7444E+00  0.7632E+01
   5.090  0.7315E+00  0.7640E+01
   5.100  0.7189E+00  0.7647E+01
   5.110  0.7066E+00  0.7654E+01
   5.120  0.6946E+00  0.7661E+01
   5.130  0.6828E+00  0.7668E+01
   5.140  0.6714E+00  0.7675E+01
   5.150  0.6602E+00  0.7681E+01
   5.160  0.6493E+00  0.7688E+01
   5.170  0.6386E+00  0.7694E+01
   5.180  0.6283E+00  0.7701E+01
   5.190  0.6169E+00  0.7707E+01
   5.200  0.5959E+00  0.7713E+01
   5.210  0.5935E+00  0.7719E+01
   5.220  0.5932E+00  0.7725E+01
   5.230  0.5924E+00  0.7731E+01
   5.240  0.5912E+00  0.7737E+01
   5.250  0.5894E+00  0.7743E+01
   5.260  0.5845E+00  0.7749E+01
   5.270  0.5765E+00  0.7754E+01
   5.280  0.5686E+00  0.7760E+01
   5.290  0.5607E+00  0.7766E+01
   5.300  0.5529E+00  0.7771E+01
   5.310  0.5451E+00  0.7777E+01
   5.320  0.5505E+00  0.7782E+01
   5.330  0.5539E+00  0.7788E+01
   5.340  0.5544E+00  0.7793E+01
   5.350  0.5499E+00  0.7799E+01
   5.360  0.5404E+00  0.7804E+01
   5.370  0.5260E+00  0.7810E+01
   5.380  0.5067E+00  0.7815E+01
   5.390  0.4854E+00  0.7820E+01
   5.400  0.4775E+00  0.7825E+01
   5.410  0.4693E+00  0.7829E+01
   5.420  0.4608E+00  0.7834E+01
   5.430  0.4521E+00  0.7839E+01
   5.440  0.4429E+00  0.7843E+01
   5.450  0.4331E+00  0.7847E+01
   5.460  0.4228E+00  0.7852E+01
   5.470  0.4119E+00  0.7856E+01
   5.480  0.4005E+00  0.7860E+01
   5.490  0.3916E+00  0.7864E+01
   5.500  0.3837E+00  0.7868E+01
   5.510  0.3780E+00  0.7872E+01
   5.520  0.3758E+00  0.7875E+01
   5.530  0.3737E+00  0.7879E+01
   5.540  0.3715E+00  0.7883E+01
   5.550  0.3691E+00  0.7887E+01
   5.560  0.3666E+00  0.7890E+01
   5.570  0.3640E+00  0.7894E+01
   5.580  0.3612E+00  0.7897E+01
   5.590  0.3567E+00  0.7901E+01
   5.600  0.3509E+00  0.7905E+01
   5.610  0.3449E+00  0.7908E+01
   5.620  0.3389E+00  0.7911E+01
   5.630  0.3328E+00  0.7915E+01
   5.640  0.3266E+00  0.7918E+01
   5.650  0.3203E+00  0.7921E+01
   5.660  0.3140E+00  0.7925E+01
   5.670  0.3076E+00  0.7928E+01
   5.680  0.3011E+00  0.7931E+01
   5.690  0.2946E+00  0.7934E+01
   5.700  0.2880E+00  0.7937E+01
   5.710  0.2814E+00  0.7939E+01
   5.720  0.2746E+00  0.7942E+01
   5.730  0.2678E+00  0.7945E+01
   5.740  0.2610E+00  0.7948E+01
   5.750  0.2539E+00  0.7950E+01
   5.760  0.2465E+00  0.7953E+01
   5.770  0.2385E+00  0.7955E+01
   5.780  0.2304E+00  0.7957E+01
   5.790  0.2222E+00  0.7960E+01
   5.800  0.2140E+00  0.7962E+01
   5.810  0.2057E+00  0.7964E+01
   5.820  0.1973E+00  0.7966E+01
   5.830  0.1888E+00  0.7968E+01
   5.840  0.1803E+00  0.7970E+01
   5.850  0.1736E+00  0.7972E+01
   5.860  0.1684E+00  0.7973E+01
   5.870  0.1631E+00  0.7975E+01
   5.880  0.1579E+00  0.7977E+01
   5.890  0.1526E+00  0.7978E+01
   5.900  0.1473E+00  0.7980E+01
   5.910  0.1419E+00  0.7981E+01
   5.920  0.1366E+00  0.7982E+01
   5.930  0.1312E+00  0.7984E+01
   5.940  0.1258E+00  0.7985E+01
   5.950  0.1204E+00  0.7986E+01
   5.960  0.1149E+00  0.7987E+01
   5.970  0.1094E+00  0.7989E+01
   5.980  0.1039E+00  0.7990E+01
   5.990  0.9841E-01  0.7991E+01
   6.000  0.9286E-01  0.7992E+01
   6.010  0.8729E-01  0.7992E+01
   6.020  0.8170E-01  0.7993E+01
   6.030  0.7608E-01  0.7994E+01
   6.040  0.7044E-01  0.7995E+01
   6.050  0.6478E-01  0.7996E+01
   6.060  0.9680E-01  0.7996E+01
   6.070  0.1023E+00  0.7997E+01
   6.080  0.6015E-01  0.7998E+01
   6.090  0.3791E-01  0.7999E+01
   6.100  0.3131E-01  0.7999E+01
   6.110  0.2534E-01  0.7999E+01
   6.120  0.2000E-01  0.7999E+01
   6.130  0.1529E-01  0.8000E+01
   6.140  0.1121E-01  0.8000E+01
   6.150  0.7769E-02  0.8000E+01
   6.160  0.4953E-02  0.8000E+01
   6.170  0.2769E-02  0.8000E+01
   6.180  0.1215E-02  0.8000E+01
   6.190  0.2926E-03  0.8000E+01
   6.200  0.0000E+00  0.8000E+01
   6.210  0.0000E+00  0.8000E+01
   6.220  0.0000E+00  0.8000E+01
   6.230  0.0000E+00  0.8000E+01
   6.240  0.0000E+00  0.8000E+01
   6.250  0.0000E+00  0.8000E+01
   6.260  0.0000E+00  0.8000E+01
   6.270  0.0000E+00  0.8000E+01
   6.280  0.0000E+00  0.8000E+01
   6.290  0.0000E+00  0.8000E+01
   6.300  0.0000E+00  0.8000E+01
   6.310  0.0000E+00  0.8000E+01
   6.320  0.0000E+00  0.8000E+01
   6.330  0.0000E+00  0.8000E+01
   6.340  0.0000E+00  0.8000E+01
   6.350  0.0000E+00  0.8000E+01
   6.360  0.0000E+00  0.8000E+01
   6.370  0.0000E+00  0.8000E+01
   6.380  0.0000E+00  0.8000E+01
   6.390  0.0000E+00  0.8000E+01
   6.400  0.0000E+00  0.8000E+01
   6.410  0.0000E+00  0.8000E+01
   6.420  0.0000E+00  0.8000E+01
   6.430  0.0000E+00  0.8000E+01
   6.440  0.0000E+00  0.8000E+01
   6.450  0.0000E+00  0.8000E+01
   6.460  0.0000E+00  0.8000E+01
   6.470  0.0000E+00  0.8000E+01
   6.480  0.0000E+00  0.8000E+01
   6.490  0.0000E+00  0.8000E+01
   6.500  0.0000E+00  0.8000E+01
   6.510  0.0000E+00  0.8000E+01
   6.520  0.0000E+00  0.8000E+01
   6.530  0.0000E+00  0.8000E+01
   6.540  0.0000E+00  0.8000E+01
   6.550  0.0000E+00  0.8000E+01
   6.560  0.0000E+00  0.8000E+01
   6.570  0.0000E+00  0.8000E+01
   6.580  0.0000E+00  0.8000E+01
   6.590  0.0000E+00  0.8000E+01
   6.600  0.0000E+00  0.8000E+01
   6.610  0.0000E+00  0.8000E+01
   6.620  0.0000E+00  0.8000E+01
   6.630  0.0000E+00  0.8000E+01
   6.640  0.0000E+00  0.8000E+01
   6.650  0.2053E-03  0.8000E+01
   6.660  0.8544E-03  0.8000E+01
   6.670  0.1947E-02  0.8000E+01
   6.680  0.3484E-02  0.8000E+01
   6.690  0.5466E-02  0.8000E+01
   6.700  0.7891E-02  0.8000E+01
   6.710  0.1076E-01  0.8000E+01
   6.720  0.1407E-01  0.8000E+01
   6.730  0.1783E-01  0.8001E+01
   6.740  0.2203E-01  0.8001E+01
   6.750  0.2668E-01  0.8001E+01
   6.760  0.3177E-01  0.8001E+01
   6.770  0.3730E-01  0.8002E+01
   6.780  0.4358E-01  0.8002E+01
   6.790  0.5147E-01  0.8002E+01
   6.800  0.6102E-01  0.8003E+01
   6.810  0.7225E-01  0.8004E+01
   6.820  0.8516E-01  0.8005E+01
   6.830  0.9976E-01  0.8005E+01
   6.840  0.1161E+00  0.8007E+01
   6.850  0.1202E+00  0.8008E+01
   6.860  0.1246E+00  0.8009E+01
   6.870  0.1292E+00  0.8010E+01
   6.880  0.1342E+00  0.8011E+01
   6.890  0.1395E+00  0.8013E+01
   6.900  0.1451E+00  0.8014E+01
   6.910  0.1510E+00  0.8016E+01
   6.920  0.1573E+00  0.8017E+01
   6.930  0.1639E+00  0.8019E+01
   6.940  0.1708E+00  0.8021E+01
   6.950  0.1781E+00  0.8022E+01
   6.960  0.1857E+00  0.8024E+01
   6.970  0.1936E+00  0.8026E+01
   6.980  0.1985E+00  0.8028E+01
   6.990  0.2036E+00  0.8030E+01
   7.000  0.2089E+00  0.8032E+01
   7.010  0.2142E+00  0.8034E+01
   7.020  0.2196E+00  0.8036E+01
   7.030  0.2251E+00  0.8039E+01
   7.040  0.2305E+00  0.8041E+01
   7.050  0.2361E+00  0.8043E+01
   7.060  0.2417E+00  0.8046E+01
   7.070  0.2473E+00  0.8048E+01
   7.080  0.2530E+00  0.8051E+01
   7.090  0.2587E+00  0.8053E+01
   7.100  0.2645E+00  0.8056E+01
   7.110  0.2704E+00  0.8058E+01
   7.120  0.2762E+00  0.8061E+01
   7.130  0.2822E+00  0.8064E+01
   7.140  0.2882E+00  0.8067E+01
   7.150  0.2942E+00  0.8070E+01
   7.160  0.3002E+00  0.8073E+01
   7.170  0.3062E+00  0.8076E+01
   7.180  0.3122E+00  0.8079E+01
   7.190  0.3182E+00  0.8082E+01
   7.200  0.3243E+00  0.8085E+01
   7.210  0.3303E+00  0.8088E+01
   7.220  0.3364E+00  0.8092E+01
   7.230  0.3425E+00  0.8095E+01
   7.240  0.3491E+00  0.8099E+01
   7.250  0.3568E+00  0.8102E+01
   7.260  0.3656E+00  0.8106E+01
   7.270  0.3756E+00  0.8109E+01
   7.280  0.3868E+00  0.8113E+01
   7.290  0.3992E+00  0.8117E+01
   7.300  0.4127E+00  0.8121E+01
   7.310  0.4274E+00  0.8125E+01
   7.320  0.4374E+00  0.8130E+01
   7.330  0.4467E+00  0.8134E+01
   7.340  0.4564E+00  0.8139E+01
   7.350  0.4665E+00  0.8143E+01
   7.360  0.4771E+00  0.8148E+01
   7.370  0.4881E+00  0.8153E+01
   7.380  0.4995E+00  0.8158E+01
   7.390  0.5113E+00  0.8163E+01
   7.400  0.5235E+00  0.8168E+01
   7.410  0.6241E+00  0.8173E+01
   7.420  0.6035E+00  0.8180E+01
   7.430  0.5062E+00  0.8185E+01
   7.440  0.5107E+00  0.8190E+01
   7.450  0.5151E+00  0.8195E+01
   7.460  0.5193E+00  0.8201E+01
   7.470  0.5235E+00  0.8206E+01
   7.480  0.5276E+00  0.8211E+01
   7.490  0.5316E+00  0.8216E+01
   7.500  0.5361E+00  0.8222E+01
   7.510  0.5408E+00  0.8227E+01
   7.520  0.5453E+00  0.8233E+01
   7.530  0.5496E+00  0.8238E+01
   7.540  0.5539E+00  0.8244E+01
   7.550  0.5582E+00  0.8249E+01
   7.560  0.5626E+00  0.8255E+01
   7.570  0.5670E+00  0.8260E+01
   7.580  0.5714E+00  0.8266E+01
   7.590  0.5758E+00  0.8272E+01
   7.600  0.5803E+00  0.8278E+01
   7.610  0.5847E+00  0.8283E+01
   7.620  0.5892E+00  0.8289E+01
   7.630  0.5938E+00  0.8295E+01
   7.640  0.5985E+00  0.8301E+01
   7.650  0.6032E+00  0.8307E+01
   7.660  0.6081E+00  0.8313E+01
   7.670  0.6129E+00  0.8319E+01
   7.680  0.6179E+00  0.8325E+01
   7.690  0.6230E+00  0.8332E+01
   7.700  0.6285E+00  0.8338E+01
   7.710  0.6341E+00  0.8344E+01
   7.720  0.6400E+00  0.8351E+01
   7.730  0.6461E+00  0.8357E+01
   7.740  0.6523E+00  0.8363E+01
   7.750  0.6587E+00  0.8370E+01
   7.760  0.6653E+00  0.8377E+01
   7.770  0.6719E+00  0.8383E+01
   7.780  0.6787E+00  0.8390E+01
   7.790  0.6856E+00  0.8397E+01
   7.800  0.6927E+00  0.8404E+01
   7.810  0.6999E+00  0.8411E+01
   7.820  0.7081E+00  0.8418E+01
   7.830  0.7215E+00  0.8425E+01
   7.840  0.7697E+00  0.8432E+01
   7.850  0.7937E+00  0.8440E+01
   7.860  0.7963E+00  0.8448E+01
   7.870  0.7982E+00  0.8456E+01
   7.880  0.7994E+00  0.8464E+01
   7.890  0.8000E+00  0.8472E+01
   7.900  0.7999E+00  0.8480E+01
   7.910  0.8013E+00  0.8488E+01
   7.920  0.8105E+00  0.8496E+01
   7.930  0.8199E+00  0.8504E+01
   7.940  0.8293E+00  0.8513E+01
   7.950  0.8373E+00  0.8521E+01
   7.960  0.8453E+00  0.8529E+01
   7.970  0.8538E+00  0.8538E+01
   7.980  0.8629E+00  0.8546E+01
   7.990  0.8729E+00  0.8555E+01
   8.000  0.8833E+00  0.8564E+01
   8.010  0.8941E+00  0.8573E+01
   8.020  0.9053E+00  0.8582E+01
   8.030  0.9169E+00  0.8591E+01
   8.040  0.9289E+00  0.8600E+01
   8.050  0.9413E+00  0.8609E+01
   8.060  0.9542E+00  0.8619E+01
   8.070  0.9674E+00  0.8629E+01
   8.080  0.9809E+00  0.8638E+01
   8.090  0.9951E+00  0.8648E+01
   8.100  0.1011E+01  0.8658E+01
   8.110  0.1029E+01  0.8668E+01
   8.120  0.1048E+01  0.8679E+01
   8.130  0.1071E+01  0.8689E+01
   8.140  0.1099E+01  0.8700E+01
   8.150  0.1134E+01  0.8711E+01
   8.160  0.1177E+01  0.8723E+01
   8.170  0.1234E+01  0.8735E+01
   8.180  0.1304E+01  0.8748E+01
   8.190  0.1387E+01  0.8761E+01
   8.200  0.1560E+01  0.8776E+01
   8.210  0.1609E+01  0.8792E+01
   8.220  0.1520E+01  0.8808E+01
   8.230  0.1535E+01  0.8823E+01
   8.240  0.1550E+01  0.8838E+01
   8.250  0.1563E+01  0.8854E+01
   8.260  0.1576E+01  0.8870E+01
   8.270  0.1587E+01  0.8885E+01
   8.280  0.1602E+01  0.8901E+01
   8.290  0.1615E+01  0.8917E+01
   8.300  0.1628E+01  0.8934E+01
   8.310  0.1640E+01  0.8950E+01
   8.320  0.1650E+01  0.8966E+01
   8.330  0.1660E+01  0.8983E+01
   8.340  0.1668E+01  0.9000E+01
   8.350  0.1676E+01  0.9016E+01
   8.360  0.1686E+01  0.9033E+01
   8.370  0.1702E+01  0.9050E+01
   8.380  0.1717E+01  0.9067E+01
   8.390  0.1731E+01  0.9084E+01
   8.400  0.1746E+01  0.9102E+01
   8.410  0.1760E+01  0.9119E+01
   8.420  0.1774E+01  0.9137E+01
   8.430  0.1787E+01  0.9155E+01
   8.440  0.1801E+01  0.9173E+01
   8.450  0.1918E+01  0.9191E+01
   8.460  0.2088E+01  0.9211E+01
   8.470  0.2094E+01  0.9232E+01
   8.480  0.2033E+01  0.9253E+01
   8.490  0.2016E+01  0.9273E+01
   8.500  0.2009E+01  0.9293E+01
   8.510  0.2010E+01  0.9313E+01
   8.520  0.2010E+01  0.9334E+01
   8.530  0.2009E+01  0.9354E+01
   8.540  0.2006E+01  0.9374E+01
   8.550  0.2001E+01  0.9394E+01
   8.560  0.1995E+01  0.9414E+01
   8.570  0.1987E+01  0.9434E+01
   8.580  0.1978E+01  0.9454E+01
   8.590  0.1967E+01  0.9473E+01
   8.600  0.1955E+01  0.9493E+01
   8.610  0.1942E+01  0.9512E+01
   8.620  0.1928E+01  0.9532E+01
   8.630  0.1913E+01  0.9551E+01
   8.640  0.1897E+01  0.9570E+01
   8.650  0.1880E+01  0.9589E+01
   8.660  0.1863E+01  0.9608E+01
   8.670  0.1844E+01  0.9626E+01
   8.680  0.1825E+01  0.9644E+01
   8.690  0.1806E+01  0.9663E+01
   8.700  0.1785E+01  0.9681E+01
   8.710  0.1764E+01  0.9698E+01
   8.720  0.1742E+01  0.9716E+01
   8.730  0.1719E+01  0.9733E+01
   8.740  0.1670E+01  0.9750E+01
   8.750  0.1566E+01  0.9766E+01
   8.760  0.1535E+01  0.9782E+01
   8.770  0.1501E+01  0.9797E+01
   8.780  0.1468E+01  0.9812E+01
   8.790  0.1436E+01  0.9826E+01
   8.800  0.1409E+01  0.9841E+01
   8.810  0.1382E+01  0.9855E+01
   8.820  0.1356E+01  0.9868E+01
   8.830  0.1330E+01  0.9882E+01
   8.840  0.1305E+01  0.9895E+01
   8.850  0.1281E+01  0.9908E+01
   8.860  0.1258E+01  0.9920E+01
   8.870  0.1235E+01  0.9933E+01
   8.880  0.1213E+01  0.9945E+01
   8.890  0.1190E+01  0.9957E+01
   8.900  0.1168E+01  0.9969E+01
   8.910  0.1146E+01  0.9981E+01
   8.920  0.1125E+01  0.9992E+01
   8.930  0.1105E+01  0.1000E+02
   8.940  0.1085E+01  0.1001E+02
   8.950  0.1064E+01  0.1002E+02
   8.960  0.1044E+01  0.1004E+02
   8.970  0.1024E+01  0.1005E+02
   8.980  0.1004E+01  0.1006E+02
   8.990  0.9869E+00  0.1007E+02
   9.000  0.9726E+00  0.1008E+02
   9.010  0.9586E+00  0.1009E+02
   9.020  0.9450E+00  0.1009E+02
   9.030  0.9318E+00  0.1010E+02
   9.040  0.9190E+00  0.1011E+02
   9.050  0.9065E+00  0.1012E+02
   9.060  0.8945E+00  0.1013E+02
   9.070  0.8828E+00  0.1014E+02
   9.080  0.8716E+00  0.1015E+02
   9.090  0.8607E+00  0.1016E+02
   9.100  0.8502E+00  0.1017E+02
   9.110  0.8401E+00  0.1017E+02
   9.120  0.8300E+00  0.1018E+02
   9.130  0.8224E+00  0.1019E+02
   9.140  0.8158E+00  0.1020E+02
   9.150  0.8079E+00  0.1021E+02
   9.160  0.8008E+00  0.1022E+02
   9.170  0.7944E+00  0.1022E+02
   9.180  0.7888E+00  0.1023E+02
   9.190  0.7839E+00  0.1024E+02
   9.200  0.7798E+00  0.1025E+02
   9.210  0.7761E+00  0.1026E+02
   9.220  0.7728E+00  0.1026E+02
   9.230  0.7699E+00  0.1027E+02
   9.240  0.7713E+00  0.1028E+02
   9.250  0.7796E+00  0.1029E+02
   9.260  0.7897E+00  0.1029E+02
   9.270  0.8016E+00  0.1030E+02
   9.280  0.8154E+00  0.1031E+02
   9.290  0.8309E+00  0.1032E+02
   9.300  0.8483E+00  0.1033E+02
   9.310  0.8674E+00  0.1034E+02
   9.320  0.8884E+00  0.1034E+02
   9.330  0.9112E+00  0.1035E+02
   9.340  0.9434E+00  0.1036E+02
   9.350  0.1012E+01  0.1037E+02
   9.360  0.1087E+01  0.1038E+02
   9.370  0.1155E+01  0.1039E+02
   9.380  0.1214E+01  0.1041E+02
   9.390  0.1285E+01  0.1042E+02
   9.400  0.1318E+01  0.1043E+02
   9.410  0.1360E+01  0.1044E+02
   9.420  0.1411E+01  0.1046E+02
   9.430  0.1460E+01  0.1047E+02
   9.440  0.1506E+01  0.1049E+02
   9.450  0.1553E+01  0.1050E+02
   9.460  0.1602E+01  0.1052E+02
   9.470  0.1643E+01  0.1053E+02
   9.480  0.1681E+01  0.1055E+02
   9.490  0.1713E+01  0.1057E+02
   9.500  0.1740E+01  0.1059E+02
   9.510  0.1759E+01  0.1060E+02
   9.520  0.1772E+01  0.1062E+02
   9.530  0.1754E+01  0.1064E+02
   9.540  0.1758E+01  0.1066E+02
   9.550  0.1783E+01  0.1067E+02
   9.560  0.1816E+01  0.1069E+02
   9.570  0.1850E+01  0.1071E+02
   9.580  0.1887E+01  0.1073E+02
   9.590  0.1925E+01  0.1075E+02
   9.600  0.1965E+01  0.1077E+02
   9.610  0.2007E+01  0.1079E+02
   9.620  0.2051E+01  0.1081E+02
   9.630  0.2096E+01  0.1083E+02
   9.640  0.2147E+01  0.1085E+02
   9.650  0.2216E+01  0.1087E+02
   9.660  0.2280E+01  0.1089E+02
   9.670  0.2339E+01  0.1092E+02
   9.680  0.2302E+01  0.1094E+02
   9.690  0.2218E+01  0.1096E+02
   9.700  0.2131E+01  0.1098E+02
   9.710  0.2050E+01  0.1100E+02
   9.720  0.2013E+01  0.1103E+02
   9.730  0.1982E+01  0.1105E+02
   9.740  0.1964E+01  0.1106E+02
   9.750  0.1966E+01  0.1108E+02
   9.760  0.1968E+01  0.1110E+02
   9.770  0.1966E+01  0.1112E+02
   9.780  0.1962E+01  0.1114E+02
   9.790  0.1955E+01  0.1116E+02
   9.800  0.1945E+01  0.1118E+02
   9.810  0.1932E+01  0.1120E+02
   9.820  0.1917E+01  0.1122E+02
   9.830  0.1899E+01  0.1124E+02
   9.840  0.1878E+01  0.1126E+02
   9.850  0.1855E+01  0.1128E+02
   9.860  0.1844E+01  0.1130E+02
   9.870  0.1834E+01  0.1131E+02
   9.880  0.1820E+01  0.1133E+02
   9.890  0.1809E+01  0.1135E+02
   9.900  0.1793E+01  0.1137E+02
   9.910  0.1776E+01  0.1139E+02
   9.920  0.1766E+01  0.1140E+02
   9.930  0.1756E+01  0.1142E+02
   9.940  0.1745E+01  0.1144E+02
   9.950  0.1735E+01  0.1146E+02
   9.960  0.1724E+01  0.1147E+02
   9.970  0.1714E+01  0.1149E+02
   9.980  0.1703E+01  0.1151E+02
   9.990  0.1692E+01  0.1153E+02
  10.000  0.1681E+01  0.1154E+02
  10.010  0.1670E+01  0.1156E+02
  10.020  0.1659E+01  0.1158E+02
  10.030  0.1648E+01  0.1159E+02
  10.040  0.1637E+01  0.1161E+02
  10.050  0.1626E+01  0.1163E+02
  10.060  0.1615E+01  0.1164E+02
  10.070  0.1604E+01  0.1166E+02
  10.080  0.1594E+01  0.1167E+02
  10.090  0.1579E+01  0.1169E+02
  10.100  0.1565E+01  0.1171E+02
  10.110  0.1550E+01  0.1172E+02
  10.120  0.1535E+01  0.1174E+02
  10.130  0.1520E+01  0.1175E+02
  10.140  0.1506E+01  0.1177E+02
  10.150  0.1491E+01  0.1178E+02
  10.160  0.1476E+01  0.1180E+02
  10.170  0.1461E+01  0.1181E+02
  10.180  0.1446E+01  0.1183E+02
  10.190  0.1431E+01  0.1184E+02
  10.200  0.1512E+01  0.1185E+02
  10.210  0.1475E+01  0.1187E+02
  10.220  0.1395E+01  0.1188E+02
  10.230  0.1382E+01  0.1190E+02
  10.240  0.1370E+01  0.1191E+02
  10.250  0.1359E+01  0.1193E+02
  10.260  0.1336E+01  0.1194E+02
  10.270  0.1324E+01  0.1195E+02
  10.280  0.1317E+01  0.1197E+02
  10.290  0.1310E+01  0.1198E+02
  10.300  0.1304E+01  0.1199E+02
  10.310  0.1296E+01  0.1200E+02
  10.320  0.1290E+01  0.1202E+02
  10.330  0.1285E+01  0.1203E+02
  10.340  0.1282E+01  0.1204E+02
  10.350  0.1281E+01  0.1206E+02
  10.360  0.1277E+01  0.1207E+02
  10.370  0.1273E+01  0.1208E+02
  10.380  0.1271E+01  0.1209E+02
  10.390  0.1267E+01  0.1211E+02
  10.400  0.1237E+01  0.1212E+02
  10.410  0.1192E+01  0.1213E+02
  10.420  0.1207E+01  0.1214E+02
  10.430  0.1198E+01  0.1216E+02
  10.440  0.1184E+01  0.1217E+02
  10.450  0.1171E+01  0.1218E+02
  10.460  0.1158E+01  0.1219E+02
  10.470  0.1147E+01  0.1220E+02
  10.480  0.1137E+01  0.1221E+02
  10.490  0.1128E+01  0.1223E+02
  10.500  0.1119E+01  0.1224E+02
  10.510  0.1112E+01  0.1225E+02
  10.520  0.1106E+01  0.1226E+02
  10.530  0.1101E+01  0.1227E+02
  10.540  0.1096E+01  0.1228E+02
  10.550  0.1093E+01  0.1229E+02
  10.560  0.1091E+01  0.1230E+02
  10.570  0.1090E+01  0.1231E+02
  10.580  0.1091E+01  0.1232E+02
  10.590  0.1092E+01  0.1234E+02
  10.600  0.1095E+01  0.1235E+02
  10.610  0.1099E+01  0.1236E+02
  10.620  0.1108E+01  0.1237E+02
  10.630  0.1118E+01  0.1238E+02
  10.640  0.1130E+01  0.1239E+02
  10.650  0.1142E+01  0.1240E+02
  10.660  0.1155E+01  0.1241E+02
  10.670  0.1154E+01  0.1242E+02
  10.680  0.1152E+01  0.1244E+02
  10.690  0.1163E+01  0.1245E+02
  10.700  0.1190E+01  0.1246E+02
  10.710  0.1231E+01  0.1247E+02
  10.720  0.1281E+01  0.1248E+02
  10.730  0.1340E+01  0.1250E+02
  10.740  0.1374E+01  0.1251E+02
  10.750  0.1362E+01  0.1252E+02
  10.760  0.1340E+01  0.1254E+02
  10.770  0.1308E+01  0.1255E+02
  10.780  0.1265E+01  0.1256E+02
  10.790  0.1212E+01  0.1258E+02
  10.800  0.1174E+01  0.1259E+02
  10.810  0.1161E+01  0.1260E+02
  10.820  0.1148E+01  0.1261E+02
  10.830  0.1134E+01  0.1262E+02
  10.840  0.1120E+01  0.1263E+02
  10.850  0.1105E+01  0.1265E+02
  10.860  0.1091E+01  0.1266E+02
  10.870  0.1076E+01  0.1267E+02
  10.880  0.1061E+01  0.1268E+02
  10.890  0.1047E+01  0.1269E+02
  10.900  0.1032E+01  0.1270E+02
  10.910  0.1018E+01  0.1271E+02
  10.920  0.1007E+01  0.1272E+02
  10.930  0.9965E+00  0.1273E+02
  10.940  0.9872E+00  0.1274E+02
  10.950  0.9788E+00  0.1275E+02
  10.960  0.9715E+00  0.1276E+02
  10.970  0.9625E+00  0.1277E+02
  10.980  0.9540E+00  0.1278E+02
  10.990  0.9463E+00  0.1279E+02
  11.000  0.9406E+00  0.1280E+02
  11.010  0.9386E+00  0.1281E+02
  11.020  0.9614E+00  0.1282E+02
  11.030  0.1021E+01  0.1283E+02
  11.040  0.1095E+01  0.1284E+02
  11.050  0.1175E+01  0.1285E+02
  11.060  0.1268E+01  0.1286E+02
  11.070  0.1228E+01  0.1287E+02
  11.080  0.1152E+01  0.1288E+02
  11.090  0.1129E+01  0.1290E+02
  11.100  0.1113E+01  0.1291E+02
  11.110  0.1113E+01  0.1292E+02
  11.120  0.1114E+01  0.1293E+02
  11.130  0.1116E+01  0.1294E+02
  11.140  0.1118E+01  0.1295E+02
  11.150  0.1121E+01  0.1296E+02
  11.160  0.1132E+01  0.1297E+02
  11.170  0.1150E+01  0.1299E+02
  11.180  0.1170E+01  0.1300E+02
  11.190  0.1188E+01  0.1301E+02
  11.200  0.1203E+01  0.1302E+02
  11.210  0.1214E+01  0.1303E+02
  11.220  0.1222E+01  0.1305E+02
  11.230  0.1227E+01  0.1306E+02
  11.240  0.1229E+01  0.1307E+02
  11.250  0.1228E+01  0.1308E+02
  11.260  0.1223E+01  0.1309E+02
  11.270  0.1216E+01  0.1311E+02
  11.280  0.1207E+01  0.1312E+02
  11.290  0.1205E+01  0.1313E+02
  11.300  0.1203E+01  0.1314E+02
  11.310  0.1200E+01  0.1315E+02
  11.320  0.1198E+01  0.1317E+02
  11.330  0.1196E+01  0.1318E+02
  11.340  0.1194E+01  0.1319E+02
  11.350  0.1193E+01  0.1320E+02
  11.360  0.1191E+01  0.1321E+02
  11.370  0.1190E+01  0.1323E+02
  11.380  0.1188E+01  0.1324E+02
  11.390  0.1187E+01  0.1325E+02
  11.400  0.1186E+01  0.1326E+02
  11.410  0.1185E+01  0.1327E+02
  11.420  0.1184E+01  0.1329E+02
  11.430  0.1184E+01  0.1330E+02
  11.440  0.1183E+01  0.1331E+02
  11.450  0.1181E+01  0.1332E+02
  11.460  0.1179E+01  0.1333E+02
  11.470  0.1177E+01  0.1334E+02
  11.480  0.1175E+01  0.1336E+02
  11.490  0.1173E+01  0.1337E+02
  11.500  0.1171E+01  0.1338E+02
  11.510  0.1169E+01  0.1339E+02
  11.520  0.1167E+01  0.1340E+02
  11.530  0.1165E+01  0.1342E+02
  11.540  0.1163E+01  0.1343E+02
  11.550  0.1162E+01  0.1344E+02
  11.560  0.1160E+01  0.1345E+02
  11.570  0.1160E+01  0.1346E+02
  11.580  0.1159E+01  0.1347E+02
  11.590  0.1160E+01  0.1348E+02
  11.600  0.1161E+01  0.1350E+02
  11.610  0.1162E+01  0.1351E+02
  11.620  0.1161E+01  0.1352E+02
  11.630  0.1160E+01  0.1353E+02
  11.640  0.1158E+01  0.1354E+02
  11.650  0.1156E+01  0.1355E+02
  11.660  0.1156E+01  0.1357E+02
  11.670  0.1157E+01  0.1358E+02
  11.680  0.1158E+01  0.1359E+02
  11.690  0.1160E+01  0.1360E+02
  11.700  0.1161E+01  0.1361E+02
  11.710  0.1163E+01  0.1362E+02
  11.720  0.1164E+01  0.1364E+02
  11.730  0.1165E+01  0.1365E+02
  11.740  0.1167E+01  0.1366E+02
  11.750  0.1168E+01  0.1367E+02
  11.760  0.1169E+01  0.1368E+02
  11.770  0.1170E+01  0.1369E+02
  11.780  0.1171E+01  0.1371E+02
  11.790  0.1172E+01  0.1372E+02
  11.800  0.1173E+01  0.1373E+02
  11.810  0.1174E+01  0.1374E+02
  11.820  0.1174E+01  0.1375E+02
  11.830  0.1173E+01  0.1376E+02
  11.840  0.1171E+01  0.1378E+02
  11.850  0.1170E+01  0.1379E+02
  11.860  0.1168E+01  0.1380E+02
  11.870  0.1166E+01  0.1381E+02
  11.880  0.1163E+01  0.1382E+02
  11.890  0.1161E+01  0.1383E+02
  11.900  0.1158E+01  0.1385E+02
  11.910  0.1157E+01  0.1386E+02
  11.920  0.1157E+01  0.1387E+02
  11.930  0.1157E+01  0.1388E+02
  11.940  0.1155E+01  0.1389E+02
  11.950  0.1151E+01  0.1390E+02
  11.960  0.1146E+01  0.1392E+02
  11.970  0.1140E+01  0.1393E+02
  11.980  0.1134E+01  0.1394E+02
  11.990  0.1126E+01  0.1395E+02
  12.000  0.1117E+01  0.1396E+02
  12.010  0.1108E+01  0.1397E+02
  12.020  0.1097E+01  0.1398E+02
  12.030  0.1085E+01  0.1399E+02
  12.040  0.1072E+01  0.1400E+02
  12.050  0.1057E+01  0.1402E+02
  12.060  0.1041E+01  0.1403E+02
  12.070  0.1024E+01  0.1404E+02
  12.080  0.1010E+01  0.1405E+02
  12.090  0.9990E+00  0.1406E+02
  12.100  0.9888E+00  0.1407E+02
  12.110  0.9792E+00  0.1408E+02
  12.120  0.9710E+00  0.1409E+02
  12.130  0.9642E+00  0.1410E+02
  12.140  0.9588E+00  0.1410E+02
  12.150  0.9549E+00  0.1411E+02
  12.160  0.9523E+00  0.1412E+02
  12.170  0.9511E+00  0.1413E+02
  12.180  0.9514E+00  0.1414E+02
  12.190  0.9499E+00  0.1415E+02
  12.200  0.9296E+00  0.1416E+02
  12.210  0.9205E+00  0.1417E+02
  12.220  0.9109E+00  0.1418E+02
  12.230  0.9023E+00  0.1419E+02
  12.240  0.9623E+00  0.1420E+02
  12.250  0.8701E+00  0.1421E+02
  12.260  0.8668E+00  0.1422E+02
  12.270  0.8637E+00  0.1423E+02
  12.280  0.8595E+00  0.1423E+02
  12.290  0.8555E+00  0.1424E+02
  12.300  0.8544E+00  0.1425E+02
  12.310  0.8542E+00  0.1426E+02
  12.320  0.8541E+00  0.1427E+02
  12.330  0.8543E+00  0.1428E+02
  12.340  0.8547E+00  0.1429E+02
  12.350  0.8554E+00  0.1429E+02
  12.360  0.8565E+00  0.1430E+02
  12.370  0.8581E+00  0.1431E+02
  12.380  0.8601E+00  0.1432E+02
  12.390  0.8627E+00  0.1433E+02
  12.400  0.8655E+00  0.1434E+02
  12.410  0.8685E+00  0.1435E+02
  12.420  0.8759E+00  0.1435E+02
  12.430  0.8848E+00  0.1436E+02
  12.440  0.8952E+00  0.1437E+02
  12.450  0.9055E+00  0.1438E+02
  12.460  0.9158E+00  0.1439E+02
  12.470  0.9259E+00  0.1440E+02
  12.480  0.9359E+00  0.1441E+02
  12.490  0.9458E+00  0.1442E+02
  12.500  0.9555E+00  0.1443E+02
  12.510  0.9652E+00  0.1444E+02
  12.520  0.9747E+00  0.1445E+02
  12.530  0.9841E+00  0.1446E+02
  12.540  0.9935E+00  0.1447E+02
  12.550  0.1003E+01  0.1448E+02
  12.560  0.1012E+01  0.1449E+02
  12.570  0.1021E+01  0.1450E+02
  12.580  0.1030E+01  0.1451E+02
  12.590  0.1038E+01  0.1452E+02
  12.600  0.1047E+01  0.1453E+02
  12.610  0.1056E+01  0.1454E+02
  12.620  0.1065E+01  0.1455E+02
  12.630  0.1073E+01  0.1456E+02
  12.640  0.1082E+01  0.1457E+02
  12.650  0.1091E+01  0.1458E+02
  12.660  0.1099E+01  0.1459E+02
  12.670  0.1101E+01  0.1460E+02
  12.680  0.1101E+01  0.1461E+02
  12.690  0.1103E+01  0.1463E+02
  12.700  0.1107E+01  0.1464E+02
  12.710  0.1111E+01  0.1465E+02
  12.720  0.1114E+01  0.1466E+02
  12.730  0.1118E+01  0.1467E+02
  12.740  0.1120E+01  0.1468E+02
  12.750  0.1123E+01  0.1469E+02
  12.760  0.1124E+01  0.1470E+02
  12.770  0.1126E+01  0.1471E+02
  12.780  0.1127E+01  0.1473E+02
  12.790  0.1128E+01  0.1474E+02
  12.800  0.1128E+01  0.1475E+02
  12.810  0.1128E+01  0.1476E+02
  12.820  0.1127E+01  0.1477E+02
  12.830  0.1123E+01  0.1478E+02
  12.840  0.1120E+01  0.1479E+02
  12.850  0.1117E+01  0.1480E+02
  12.860  0.1115E+01  0.1482E+02
  12.870  0.1114E+01  0.1483E+02
  12.880  0.1114E+01  0.1484E+02
  12.890  0.1115E+01  0.1485E+02
  12.900  0.1116E+01  0.1486E+02
  12.910  0.1117E+01  0.1487E+02
  12.920  0.1115E+01  0.1488E+02
  12.930  0.1113E+01  0.1489E+02
  12.940  0.1110E+01  0.1490E+02
  12.950  0.1108E+01  0.1492E+02
  12.960  0.1106E+01  0.1493E+02
  12.970  0.1104E+01  0.1494E+02
  12.980  0.1102E+01  0.1495E+02
  12.990  0.1100E+01  0.1496E+02
  13.000  0.1099E+01  0.1497E+02
  13.010  0.1097E+01  0.1498E+02
  13.020  0.1093E+01  0.1499E+02
  13.030  0.1088E+01  0.1500E+02
  13.040  0.1083E+01  0.1501E+02
  13.050  0.1077E+01  0.1503E+02
  13.060  0.1072E+01  0.1504E+02
  13.070  0.1066E+01  0.1505E+02
  13.080  0.1061E+01  0.1506E+02
  13.090  0.1055E+01  0.1507E+02
  13.100  0.1049E+01  0.1508E+02
  13.110  0.1042E+01  0.1509E+02
  13.120  0.1036E+01  0.1510E+02
  13.130  0.1029E+01  0.1511E+02
  13.140  0.1023E+01  0.1512E+02
  13.150  0.1016E+01  0.1513E+02
  13.160  0.1009E+01  0.1514E+02
  13.170  0.1001E+01  0.1515E+02
  13.180  0.9934E+00  0.1516E+02
  13.190  0.9855E+00  0.1517E+02
  13.200  0.9774E+00  0.1518E+02
  13.210  0.9691E+00  0.1519E+02
  13.220  0.9606E+00  0.1520E+02
  13.230  0.9513E+00  0.1521E+02
  13.240  0.9418E+00  0.1522E+02
  13.250  0.9324E+00  0.1523E+02
  13.260  0.9230E+00  0.1524E+02
  13.270  0.9134E+00  0.1525E+02
  13.280  0.9036E+00  0.1526E+02
  13.290  0.8937E+00  0.1526E+02
  13.300  0.8833E+00  0.1527E+02
  13.310  0.8725E+00  0.1528E+02
  13.320  0.8614E+00  0.1529E+02
  13.330  0.8502E+00  0.1530E+02
  13.340  0.8388E+00  0.1531E+02
  13.350  0.8278E+00  0.1532E+02
  13.360  0.8171E+00  0.1532E+02
  13.370  0.8068E+00  0.1533E+02
  13.380  0.7969E+00  0.1534E+02
  13.390  0.7874E+00  0.1535E+02
  13.400  0.7782E+00  0.1536E+02
  13.410  0.7694E+00  0.1536E+02
  13.420  0.7612E+00  0.1537E+02
  13.430  0.7534E+00  0.1538E+02
  13.440  0.7461E+00  0.1539E+02
  13.450  0.7391E+00  0.1539E+02
  13.460  0.7324E+00  0.1540E+02
  13.470  0.7260E+00  0.1541E+02
  13.480  0.7199E+00  0.1542E+02
  13.490  0.7140E+00  0.1542E+02
  13.500  0.7068E+00  0.1543E+02
  13.510  0.6999E+00  0.1544E+02
  13.520  0.6933E+00  0.1544E+02
  13.530  0.6870E+00  0.1545E+02
  13.540  0.6809E+00  0.1546E+02
  13.550  0.6751E+00  0.1546E+02
  13.560  0.6696E+00  0.1547E+02
  13.570  0.6644E+00  0.1548E+02
  13.580  0.6595E+00  0.1548E+02
  13.590  0.6548E+00  0.1549E+02
  13.600  0.6504E+00  0.1550E+02
  13.610  0.6463E+00  0.1550E+02
  13.620  0.6424E+00  0.1551E+02
  13.630  0.6390E+00  0.1552E+02
  13.640  0.6363E+00  0.1552E+02
  13.650  0.6331E+00  0.1553E+02
  13.660  0.6298E+00  0.1554E+02
  13.670  0.6263E+00  0.1554E+02
  13.680  0.6229E+00  0.1555E+02
  13.690  0.6161E+00  0.1555E+02
  13.700  0.6086E+00  0.1556E+02
  13.710  0.6021E+00  0.1557E+02
  13.720  0.5926E+00  0.1557E+02
  13.730  0.5816E+00  0.1558E+02
  13.740  0.5693E+00  0.1558E+02
  13.750  0.5559E+00  0.1559E+02
  13.760  0.5413E+00  0.1560E+02
  13.770  0.5257E+00  0.1560E+02
  13.780  0.5111E+00  0.1561E+02
  13.790  0.5063E+00  0.1561E+02
  13.800  0.5027E+00  0.1562E+02
  13.810  0.4996E+00  0.1562E+02
  13.820  0.4970E+00  0.1563E+02
  13.830  0.4948E+00  0.1563E+02
  13.840  0.4934E+00  0.1564E+02
  13.850  0.4923E+00  0.1564E+02
  13.860  0.4912E+00  0.1565E+02
  13.870  0.4902E+00  0.1565E+02
  13.880  0.4893E+00  0.1566E+02
  13.890  0.4884E+00  0.1566E+02
  13.900  0.4876E+00  0.1567E+02
  13.910  0.4869E+00  0.1567E+02
  13.920  0.4863E+00  0.1568E+02
  13.930  0.4857E+00  0.1568E+02
  13.940  0.4851E+00  0.1569E+02
  13.950  0.4841E+00  0.1569E+02
  13.960  0.4826E+00  0.1569E+02
  13.970  0.4806E+00  0.1570E+02
  13.980  0.4781E+00  0.1570E+02
  13.990  0.4804E+00  0.1571E+02
  14.000  0.4902E+00  0.1571E+02
  14.010  0.4953E+00  0.1572E+02
  14.020  0.4957E+00  0.1572E+02
  14.030  0.4914E+00  0.1573E+02
  14.040  0.4824E+00  0.1573E+02
  14.050  0.4686E+00  0.1574E+02
  14.060  0.4502E+00  0.1574E+02
  14.070  0.4270E+00  0.1575E+02
  14.080  0.3990E+00  0.1575E+02
  14.090  0.3770E+00  0.1576E+02
  14.100  0.3591E+00  0.1576E+02
  14.110  0.3426E+00  0.1576E+02
  14.120  0.3278E+00  0.1577E+02
  14.130  0.3144E+00  0.1577E+02
  14.140  0.3024E+00  0.1577E+02
  14.150  0.2910E+00  0.1578E+02
  14.160  0.2803E+00  0.1578E+02
  14.170  0.2702E+00  0.1578E+02
  14.180  0.2607E+00  0.1578E+02
  14.190  0.2519E+00  0.1579E+02
  14.200  0.2437E+00  0.1579E+02
  14.210  0.2411E+00  0.1579E+02
  14.220  0.2394E+00  0.1579E+02
  14.230  0.2376E+00  0.1580E+02
  14.240  0.2359E+00  0.1580E+02
  14.250  0.2342E+00  0.1580E+02
  14.260  0.2325E+00  0.1580E+02
  14.270  0.2308E+00  0.1581E+02
  14.280  0.2291E+00  0.1581E+02
  14.290  0.2275E+00  0.1581E+02
  14.300  0.2258E+00  0.1581E+02
  14.310  0.2241E+00  0.1581E+02
  14.320  0.2225E+00  0.1582E+02
  14.330  0.2209E+00  0.1582E+02
  14.340  0.2192E+00  0.1582E+02
  14.350  0.2176E+00  0.1582E+02
  14.360  0.2160E+00  0.1583E+02
  14.370  0.2144E+00  0.1583E+02
  14.380  0.2128E+00  0.1583E+02
  14.390  0.2113E+00  0.1583E+02
  14.400  0.2097E+00  0.1583E+02
  14.410  0.2081E+00  0.1584E+02
  14.420  0.2066E+00  0.1584E+02
  14.430  0.2050E+00  0.1584E+02
  14.440  0.2035E+00  0.1584E+02
  14.450  0.2020E+00  0.1584E+02
  14.460  0.2005E+00  0.1585E+02
  14.470  0.1990E+00  0.1585E+02
  14.480  0.1975E+00  0.1585E+02
  14.490  0.1960E+00  0.1585E+02
  14.500  0.1945E+00  0.1585E+02
  14.510  0.1931E+00  0.1586E+02
  14.520  0.1916E+00  0.1586E+02
  14.530  0.1902E+00  0.1586E+02
  14.540  0.1888E+00  0.1586E+02
  14.550  0.1875E+00  0.1586E+02
  14.560  0.1861E+00  0.1587E+02
  14.570  0.1848E+00  0.1587E+02
  14.580  0.1835E+00  0.1587E+02
  14.590  0.1822E+00  0.1587E+02
  14.600  0.1810E+00  0.1587E+02
  14.610  0.1798E+00  0.1587E+02
  14.620  0.1785E+00  0.1588E+02
  14.630  0.1774E+00  0.1588E+02
  14.640  0.1762E+00  0.1588E+02
  14.650  0.1750E+00  0.1588E+02
  14.660  0.1739E+00  0.1588E+02
  14.670  0.1728E+00  0.1589E+02
  14.680  0.1718E+00  0.1589E+02
  14.690  0.1707E+00  0.1589E+02
  14.700  0.1697E+00  0.1589E+02
  14.710  0.1687E+00  0.1589E+02
  14.720  0.1677E+00  0.1589E+02
  14.730  0.1667E+00  0.1590E+02
  14.740  0.1658E+00  0.1590E+02
  14.750  0.1648E+00  0.1590E+02
  14.760  0.1639E+00  0.1590E+02
  14.770  0.1631E+00  0.1590E+02
  14.780  0.1622E+00  0.1590E+02
  14.790  0.1614E+00  0.1591E+02
  14.800  0.1611E+00  0.1591E+02
  14.810  0.1610E+00  0.1591E+02
  14.820  0.1608E+00  0.1591E+02
  14.830  0.1607E+00  0.1591E+02
  14.840  0.1605E+00  0.1591E+02
  14.850  0.1604E+00  0.1591E+02
  14.860  0.1602E+00  0.1592E+02
  14.870  0.1600E+00  0.1592E+02
  14.880  0.1598E+00  0.1592E+02
  14.890  0.1596E+00  0.1592E+02
  14.900  0.1594E+00  0.1592E+02
  14.910  0.1592E+00  0.1592E+02
  14.920  0.1589E+00  0.1593E+02
  14.930  0.1587E+00  0.1593E+02
  14.940  0.1585E+00  0.1593E+02
  14.950  0.1582E+00  0.1593E+02
  14.960  0.1579E+00  0.1593E+02
  14.970  0.1577E+00  0.1593E+02
  14.980  0.1574E+00  0.1594E+02
  14.990  0.1571E+00  0.1594E+02
  15.000  0.1568E+00  0.1594E+02
  15.010  0.1565E+00  0.1594E+02
  15.020  0.1562E+00  0.1594E+02
  15.030  0.1555E+00  0.1594E+02
  15.040  0.1549E+00  0.1594E+02
  15.050  0.1546E+00  0.1595E+02
  15.060  0.1547E+00  0.1595E+02
  15.070  0.1552E+00  0.1595E+02
  15.080  0.1560E+00  0.1595E+02
  15.090  0.1572E+00  0.1595E+02
  15.100  0.1587E+00  0.1595E+02
  15.110  0.1622E+00  0.1596E+02
  15.120  0.1661E+00  0.1596E+02
  15.130  0.1690E+00  0.1596E+02
  15.140  0.1709E+00  0.1596E+02
  15.150  0.1717E+00  0.1596E+02
  15.160  0.1715E+00  0.1596E+02
  15.170  0.1703E+00  0.1597E+02
  15.180  0.1681E+00  0.1597E+02
  15.190  0.1649E+00  0.1597E+02
  15.200  0.1606E+00  0.1597E+02
  15.210  0.1553E+00  0.1597E+02
  15.220  0.1490E+00  0.1597E+02
  15.230  0.1417E+00  0.1598E+02
  15.240  0.1333E+00  0.1598E+02
  15.250  0.1239E+00  0.1598E+02
  15.260  0.1134E+00  0.1598E+02
  15.270  0.1017E+00  0.1598E+02
  15.280  0.9378E-01  0.1598E+02
  15.290  0.8875E-01  0.1598E+02
  15.300  0.8340E-01  0.1598E+02
  15.310  0.7773E-01  0.1598E+02
  15.320  0.7174E-01  0.1598E+02
  15.330  0.6543E-01  0.1599E+02
  15.340  0.5880E-01  0.1599E+02
  15.350  0.5184E-01  0.1599E+02
  15.360  0.4457E-01  0.1599E+02
  15.370  0.3990E-01  0.1599E+02
  15.380  0.3906E-01  0.1599E+02
  15.390  0.3822E-01  0.1599E+02
  15.400  0.3739E-01  0.1599E+02
  15.410  0.3657E-01  0.1599E+02
  15.420  0.3575E-01  0.1599E+02
  15.430  0.3495E-01  0.1599E+02
  15.440  0.3416E-01  0.1599E+02
  15.450  0.3337E-01  0.1599E+02
  15.460  0.3260E-01  0.1599E+02
  15.470  0.3183E-01  0.1599E+02
  15.480  0.3107E-01  0.1599E+02
  15.490  0.3032E-01  0.1599E+02
  15.500  0.2959E-01  0.1599E+02
  15.510  0.2886E-01  0.1599E+02
  15.520  0.2813E-01  0.1599E+02
  15.530  0.2742E-01  0.1599E+02
  15.540  0.2672E-01  0.1599E+02
  15.550  0.2603E-01  0.1599E+02
  15.560  0.2534E-01  0.1599E+02
  15.570  0.2467E-01  0.1599E+02
  15.580  0.2400E-01  0.1599E+02
  15.590  0.2334E-01  0.1599E+02
  15.600  0.2270E-01  0.1599E+02
  15.610  0.2206E-01  0.1599E+02
  15.620  0.2143E-01  0.1600E+02
  15.630  0.2081E-01  0.1600E+02
  15.640  0.2020E-01  0.1600E+02
  15.650  0.1959E-01  0.1600E+02
  15.660  0.1900E-01  0.1600E+02
  15.670  0.1842E-01  0.1600E+02
  15.680  0.1784E-01  0.1600E+02
  15.690  0.1728E-01  0.1600E+02
  15.700  0.1672E-01  0.1600E+02
  15.710  0.1617E-01  0.1600E+02
  15.720  0.1563E-01  0.1600E+02
  15.730  0.1510E-01  0.1600E+02
  15.740  0.1458E-01  0.1600E+02
  15.750  0.1407E-01  0.1600E+02
  15.760  0.1357E-01  0.1600E+02
  15.770  0.1308E-01  0.1600E+02
  15.780  0.1259E-01  0.1600E+02
  15.790  0.1212E-01  0.1600E+02
  15.800  0.1165E-01  0.1600E+02
  15.810  0.1120E-01  0.1600E+02
  15.820  0.1075E-01  0.1600E+02
  15.830  0.1031E-01  0.1600E+02
  15.840  0.9882E-02  0.1600E+02
  15.850  0.9463E-02  0.1600E+02
  15.860  0.9052E-02  0.1600E+02
  15.870  0.8650E-02  0.1600E+02
  15.880  0.8257E-02  0.1600E+02
  15.890  0.7874E-02  0.1600E+02
  15.900  0.7500E-02  0.1600E+02
  15.910  0.7134E-02  0.1600E+02
  15.920  0.6778E-02  0.1600E+02
  15.930  0.6431E-02  0.1600E+02
  15.940  0.6093E-02  0.1600E+02
  15.950  0.5765E-02  0.1600E+02
  15.960  0.5445E-02  0.1600E+02
  15.970  0.5134E-02  0.1600E+02
  15.980  0.4833E-02  0.1600E+02
  15.990  0.4541E-02  0.1600E+02
  16.000  0.4257E-02  0.1600E+02
